time (s)	coil I (A)	last det (V)	int current (uC)
6931.782103	1.080934	0.267407	485.339294
6931.783002	1.543513	0.267407	1872.957764
6931.783943	0.790345	0.267407	2616.672852
6931.784842	0.096361	0.267407	2703.301514
6931.785747	0.090198	0.267407	2784.930420
6931.786640	0.090278	0.267407	2865.549072
6931.787568	0.090249	0.267407	2949.300049
6931.788485	0.090099	0.267407	3031.920654
6931.789383	0.089700	0.267407	3112.470947
6931.790274	0.089729	0.267407	3192.419434
6931.791230	0.090286	0.267407	3278.732422
6931.792134	0.090227	0.267407	3360.297607
6931.793036	0.090220	0.267407	3441.675781
6932.821983	1.092869	0.253364	495.069458
6932.822893	1.544396	0.253364	1900.469604
6932.823795	0.792609	0.253364	2615.402588
6932.824742	0.096962	0.253364	2707.225342
6932.825652	0.090282	0.253364	2789.381836
6932.826569	0.090322	0.253364	2872.207275
6932.827459	0.090344	0.253364	2952.613770
6932.828431	0.090245	0.253364	3040.332275
6932.829338	0.090275	0.253364	3122.211426
6932.830258	0.090245	0.253364	3205.237061
6932.831146	0.090227	0.253364	3285.358643
6932.832083	0.090209	0.253364	3369.884277
6932.832991	0.090238	0.253364	3451.820312
6933.821911	1.081238	0.272676	486.557007
6933.822818	1.543821	0.272676	1886.802368
6933.823719	0.808890	0.272676	2615.612549
6933.824681	0.094834	0.272676	2706.842773
6933.825574	0.090179	0.272676	2787.373047
6933.826492	0.090183	0.272676	2870.161133
6933.827391	0.090234	0.272676	2951.281738
6933.828325	0.090300	0.272676	3035.622314
6933.829230	0.090256	0.272676	3117.304199
6933.830148	0.090231	0.272676	3200.135986
6933.831041	0.090227	0.272676	3280.708740
6933.832007	0.090216	0.272676	3367.857422
6933.832903	0.090201	0.272676	3448.677979
6934.863335	1.097618	0.242903	511.490204
6934.864241	1.544711	0.242903	1910.998169
6934.865204	0.699979	0.242903	2585.078125
6934.866116	0.094259	0.242903	2671.042480
6934.867036	0.090139	0.242903	2753.970459
6934.867924	0.090220	0.242903	2834.085449
6934.868874	0.090234	0.242903	2919.808105
6934.869783	0.090179	0.242903	3001.781250
6934.870683	0.090297	0.242903	3083.048096
6934.871615	0.090198	0.242903	3167.112305
6934.872533	0.090238	0.242903	3249.950928
6934.873450	0.090293	0.242903	3332.749512
6934.874342	0.090256	0.242903	3413.258057
6935.860187	1.079989	0.278872	485.995087
6935.861080	1.543015	0.278872	1863.907593
6935.862039	0.732968	0.278872	2566.823486
6935.862965	0.094607	0.278872	2654.429443
6935.863858	0.090187	0.278872	2734.966309
6935.864773	0.090172	0.278872	2817.473877
6935.865705	0.090220	0.278872	2901.558594
6935.866627	0.090260	0.278872	2984.778320
6935.867517	0.090267	0.278872	3065.116211
6935.868474	0.090231	0.278872	3151.467041
6935.869392	0.090216	0.278872	3234.285400
6935.870313	0.090216	0.278872	3317.374512
6935.871201	0.090146	0.278872	3397.424561
6936.898503	1.079883	0.230548	470.828918
6936.899491	1.545846	0.230548	1998.124756
6936.900425	0.646274	0.230548	2601.745117
6936.901321	0.093505	0.230548	2685.525391
6936.902239	0.090132	0.230548	2768.266357
6936.903186	0.090194	0.230548	2853.680176
6936.904104	0.090242	0.230548	2936.521973
6936.904996	0.090227	0.230548	3017.004395
6936.905953	0.090293	0.230548	3103.414795
6936.906882	0.090238	0.230548	3187.245850
6936.907799	0.090322	0.230548	3270.071289
6936.908688	0.090267	0.230548	3350.318848
6936.909621	0.090253	0.230548	3434.524658
6937.894863	1.070145	0.305608	471.934052
6937.895803	1.544480	0.305608	1923.745239
6937.896762	0.670686	0.305608	2566.933105
6937.897688	0.093237	0.305608	2653.270752
6937.898584	0.090216	0.305608	2734.104248
6937.899541	0.090242	0.305608	2820.465576
6937.900474	0.090242	0.305608	2904.661133
6937.901377	0.090227	0.305608	2986.136230
6937.902292	0.090201	0.305608	3068.670410
6937.903223	0.090132	0.305608	3152.583252
6937.904133	0.090205	0.305608	3234.669922
6937.905020	0.090223	0.305608	3314.697998
6937.905966	0.090212	0.305608	3400.038818
6938.914265	1.072053	0.278215	477.063721
6938.915159	1.542686	0.278215	1856.224731
6938.916130	0.725043	0.278215	2560.241211
6938.917056	0.093984	0.278215	2647.270752
6938.917952	0.090227	0.278215	2728.114258
6938.918871	0.090172	0.278215	2810.982422
6938.919808	0.090315	0.278215	2895.607422
6938.920743	0.090216	0.278215	2979.959473
6938.921641	0.090234	0.278215	3060.989990
6938.922563	0.090212	0.278215	3144.165771
6938.923506	0.090249	0.278215	3229.270508
6938.924424	0.090194	0.278215	3312.068604
6938.925315	0.090297	0.278215	3392.522949
6939.935700	1.079755	0.300512	481.570557
6939.936668	1.545938	0.300512	1978.038086
6939.937584	0.704608	0.300512	2623.459229
6939.938477	0.094673	0.300512	2708.002197
6939.939369	0.090121	0.300512	2788.389893
6939.940309	0.090275	0.300512	2873.248047
6939.941220	0.090238	0.300512	2955.454834
6939.942119	0.090183	0.300512	3036.529541
6939.943038	0.090209	0.300512	3119.431396
6939.943948	0.090242	0.300512	3201.551270
6939.944860	0.090212	0.300512	3283.824951
6939.945753	0.090245	0.300512	3364.414062
6939.946692	0.090267	0.300512	3449.175049
6940.946911	1.087053	0.248840	491.348083
6940.947832	1.544015	0.248840	1913.385742
6940.948731	0.781014	0.248840	2615.517578
6940.949663	0.096965	0.248840	2705.889160
6940.950576	0.090275	0.248840	2788.309814
6940.951490	0.090223	0.248840	2870.773926
6940.952385	0.090205	0.248840	2951.507568
6940.953323	0.090256	0.248840	3036.167969
6940.954219	0.090300	0.248840	3117.077148
6940.955116	0.090289	0.248840	3198.066650
6940.956004	0.090194	0.248840	3278.158936
6940.956957	0.090256	0.248840	3364.173340
6940.957851	0.090234	0.248840	3444.842773
6941.980106	1.075459	0.277558	472.126495
6941.981081	1.545901	0.277558	1979.379761
6941.981999	0.694263	0.277558	2616.712891
6941.982892	0.094486	0.277558	2701.088867
6941.983827	0.090304	0.277558	2785.522949
6941.984733	0.090293	0.277558	2867.328369
6941.985643	0.090289	0.277558	2949.491699
6941.986535	0.090234	0.277558	3029.980713
6941.987478	0.090282	0.277558	3115.116699
6941.988377	0.090154	0.277558	3196.165039
6941.989285	0.090194	0.277558	3278.061279
6941.990176	0.090271	0.277558	3358.492676
6941.991125	0.090245	0.277558	3444.135498
6942.978010	1.086980	0.258988	489.140991
6942.978916	1.543458	0.258988	1887.514160
6942.979817	0.811069	0.258988	2618.287598
6942.980739	0.098057	0.258988	2708.695801
6942.981683	0.090092	0.258988	2793.742187
6942.982601	0.090216	0.258988	2876.560547
6942.983488	0.090286	0.258988	2956.643799
6942.984431	0.090231	0.258988	3041.731445
6942.985348	0.090161	0.258988	3124.409180
6942.986267	0.090238	0.258988	3207.337891
6942.987160	0.090209	0.258988	3287.894287
6942.988101	0.090216	0.258988	3372.787598
6942.989031	0.090187	0.258988	3456.661377
6944.018926	1.089565	0.274996	508.827026
6944.019844	1.545081	0.274996	1927.210937
6944.020740	0.764897	0.274996	2612.559082
6944.021666	0.096031	0.274996	2701.484131
6944.022611	0.090179	0.274996	2786.703613
6944.023529	0.090289	0.274996	2869.589111
6944.024419	0.090201	0.274996	2949.868408
6944.025371	0.090253	0.274996	3035.789062
6944.026303	0.090183	0.274996	3119.839844
6944.027223	0.090297	0.274996	3202.912842
6944.028113	0.090245	0.274996	3283.231201
6944.029053	0.090249	0.274996	3368.065186
6944.029978	0.090242	0.274996	3451.538818
6945.014737	1.070632	0.296810	474.290131
6945.015697	1.544938	0.296810	1957.430420
6945.016642	0.673898	0.296810	2594.263672
6945.017564	0.093490	0.296810	2680.461426
6945.018459	0.090165	0.296810	2761.158936
6945.019396	0.090242	0.296810	2845.715332
6945.020335	0.090150	0.296810	2930.366211
6945.021227	0.090216	0.296810	3010.838867
6945.022146	0.090209	0.296810	3093.740723
6945.023080	0.090092	0.296810	3177.886230
6945.024000	0.090227	0.296810	3260.895020
6945.024892	0.090179	0.296810	3341.334961
6945.025837	0.090059	0.296810	3426.440430
6946.048457	1.070083	0.271399	468.696350
6946.049352	1.541909	0.271399	1848.705078
6946.050350	0.698555	0.271399	2545.862793
6946.051251	0.094402	0.271399	2630.918945
6946.052142	0.090220	0.271399	2711.304687
6946.053088	0.090220	0.271399	2796.652588
6946.053990	0.090267	0.271399	2878.073730
6946.054885	0.090256	0.271399	2958.853271
6946.055774	0.090165	0.271399	3039.009766
6946.056700	0.090326	0.271399	3122.651611
6946.057609	0.090264	0.271399	3204.701172
6946.058513	0.090245	0.271399	3286.282959
6946.059403	0.090282	0.271399	3366.634033
6947.063291	1.089521	0.284918	529.507385
6947.064217	1.545363	0.284918	1960.513184
6947.065130	0.710255	0.284918	2608.976074
6947.066014	0.095068	0.284918	2693.016602
6947.066954	0.090289	0.284918	2777.888428
6947.067862	0.090286	0.284918	2859.867676
6947.068785	0.090275	0.284918	2943.191162
6947.069682	0.090282	0.284918	3024.174072
6947.070634	0.090231	0.284918	3110.073730
6947.071538	0.090242	0.284918	3191.652344
6947.072431	0.090234	0.284918	3272.231689
6947.073356	0.090245	0.284918	3355.708740
6947.074280	0.090187	0.284918	3439.041260
6948.075464	1.063850	0.260152	467.030212
6948.076355	1.542400	0.260152	1841.308594
6948.077327	0.739871	0.260152	2560.462891
6948.078242	0.095013	0.260152	2647.400146
6948.079159	0.090187	0.260152	2730.101318
6948.080052	0.090234	0.260152	2810.680664
6948.080998	0.090253	0.260152	2896.059814
6948.081916	0.090267	0.260152	2978.925293
6948.082805	0.090198	0.260152	3059.111084
6948.083738	0.090278	0.260152	3143.340820
6948.084655	0.090150	0.260152	3226.008545
6948.085569	0.090223	0.260152	3308.472656
6948.086459	0.090260	0.260152	3388.803955
6949.104114	1.104177	0.284644	523.380005
6949.105063	1.545579	0.284644	1990.134155
6949.105998	0.658813	0.284644	2606.124756
6949.106886	0.093937	0.284644	2689.540527
6949.107837	0.090179	0.284644	2775.301270
6949.108763	0.090234	0.284644	2858.858398
6949.109662	0.090264	0.284644	2940.005371
6949.110580	0.090289	0.284644	3022.890869
6949.111517	0.090245	0.284644	3107.450684
6949.112447	0.090293	0.284644	3191.423096
6949.113348	0.090271	0.284644	3272.757324
6949.114261	0.090179	0.284644	3355.091064
6949.115198	0.090256	0.284644	3439.661377
6950.104558	1.100156	0.276455	520.373901
6950.105490	1.545385	0.276455	1960.672241
6950.106429	0.678333	0.276455	2597.626465
6950.107315	0.094501	0.276455	2681.354004
6950.108268	0.090168	0.276455	2767.284424
6950.109198	0.090238	0.276455	2851.205811
6950.110088	0.090205	0.276455	2931.488281
6950.111010	0.090238	0.276455	3014.687744
6950.111937	0.090260	0.276455	3098.358887
6950.112857	0.090194	0.276455	3181.337402
6950.113751	0.090363	0.276455	3262.121582
6950.114702	0.090212	0.276455	3347.913574
6950.115640	0.090172	0.276455	3432.495117
6951.144398	1.077579	0.280185	475.212494
6951.145374	1.545007	0.280185	1983.139648
6951.146314	0.656814	0.280185	2600.544922
6951.147216	0.093391	0.280185	2684.783691
6951.148136	0.090132	0.280185	2767.705078
6951.149076	0.090183	0.280185	2852.477295
6951.149997	0.090242	0.280185	2935.589844
6951.150888	0.090205	0.280185	3015.962646
6951.151837	0.090183	0.280185	3101.546387
6951.152773	0.090205	0.280185	3185.978271
6951.153668	0.090289	0.280185	3266.787109
6951.154583	0.090278	0.280185	3349.391846
6951.155519	0.090176	0.280185	3433.796387
6952.144843	1.071453	0.305543	472.510590
6952.145821	1.545498	0.305543	1984.007690
6952.146735	0.693420	0.305543	2617.793945
6952.147640	0.094135	0.305543	2702.985596
6952.148573	0.090176	0.305543	2787.119629
6952.149480	0.090308	0.305543	2869.028564
6952.150386	0.090275	0.305543	2950.817383
6952.151285	0.090370	0.305543	3032.059814
6952.152232	0.090319	0.305543	3117.591553
6952.153137	0.090172	0.305543	3199.197266
6952.154038	0.090227	0.305543	3280.491943
6952.154924	0.090245	0.305543	3360.449219
6952.155857	0.090348	0.305543	3444.743896
6953.175554	1.093077	0.269425	541.073242
6953.176482	1.546058	0.269425	1975.815308
6953.177403	0.683789	0.269425	2605.584961
6953.178294	0.094416	0.269425	2689.709961
6953.179234	0.090220	0.269425	2774.516602
6953.180146	0.090190	0.269425	2856.770264
6953.181053	0.090348	0.269425	2938.715820
6953.181947	0.090293	0.269425	3019.437744
6953.182900	0.090388	0.269425	3105.577637
6953.183811	0.090260	0.269425	3187.804443
6953.184702	0.090297	0.269425	3268.258789
6953.185648	0.090286	0.269425	3353.668945
6953.186559	0.090326	0.269425	3435.955811
6954.191301	1.063769	0.298888	462.739716
6954.192196	1.541646	0.298888	1842.512451
6954.193197	0.700444	0.298888	2543.657227
6954.194103	0.094124	0.298888	2628.933105
6954.195027	0.090220	0.298888	2712.296143
6954.195913	0.090253	0.298888	2792.260010
6954.196850	0.090150	0.298888	2876.730713
6954.197770	0.090176	0.298888	2959.692383
6954.198660	0.090275	0.298888	3040.036865
6954.199574	0.090212	0.298888	3122.490967
6954.200493	0.090242	0.298888	3205.423096
6954.201420	0.090289	0.298888	3289.121338
6954.202318	0.090297	0.298888	3370.207764
6955.201494	1.081736	0.266207	482.454193
6955.202392	1.543055	0.266207	1868.118042
6955.203344	0.755695	0.266207	2587.539307
6955.204276	0.094669	0.266207	2675.770996
6955.205203	0.090227	0.266207	2759.411377
6955.206095	0.090297	0.266207	2839.956055
6955.207020	0.090311	0.266207	2923.493896
6955.207960	0.090216	0.266207	3008.296875
6955.208876	0.090249	0.266207	3090.965088
6955.209766	0.090256	0.266207	3171.293213
6955.210697	0.090183	0.266207	3255.253662
6955.211633	0.090278	0.266207	3339.754150
6955.212529	0.090278	0.266207	3420.643555
6956.230088	1.062883	0.299259	463.417114
6956.231042	1.543667	0.299259	1936.075439
6956.231994	0.689333	0.299259	2592.320801
6956.232889	0.094113	0.299259	2676.551514
6956.233809	0.090084	0.299259	2759.428955
6956.234749	0.090253	0.299259	2844.266602
6956.235670	0.090249	0.299259	2927.385986
6956.236557	0.090256	0.299259	3007.443359
6956.237497	0.090165	0.299259	3092.198242
6956.238419	0.090275	0.299259	3175.431396
6956.239356	0.090242	0.299259	3259.987793
6956.240246	0.090278	0.299259	3340.335449
6956.241161	0.090286	0.299259	3422.946777
6957.233111	1.087701	0.258464	492.728760
6957.234012	1.543308	0.258464	1883.249268
6957.234970	0.735121	0.258464	2587.495117
6957.235867	0.095475	0.258464	2673.135986
6957.236764	0.090084	0.258464	2753.941650
6957.237650	0.090176	0.258464	2833.837402
6957.238595	0.090275	0.258464	2919.146973
6957.239490	0.090253	0.258464	2999.923096
6957.240388	0.090165	0.258464	3080.891113
6957.241301	0.090183	0.258464	3163.228271
6957.242225	0.090146	0.258464	3246.523682
6957.243138	0.090183	0.258464	3328.860840
6957.244037	0.090231	0.258464	3409.978271
6958.270411	1.064868	0.290445	465.347412
6958.271306	1.541821	0.290445	1845.277588
6958.272277	0.746177	0.290445	2569.815186
6958.273177	0.095760	0.290445	2655.999512
6958.274069	0.090161	0.290445	2736.423340
6958.274992	0.090249	0.290445	2819.723145
6958.275907	0.090275	0.290445	2902.324463
6958.276814	0.090161	0.290445	2984.100586
6958.277705	0.090157	0.290445	3064.430908
6958.278632	0.090275	0.290445	3148.115479
6958.279544	0.090205	0.290445	3230.382568
6958.280446	0.090245	0.290445	3311.783936
6958.281337	0.090278	0.290445	3392.221924
6959.264714	1.072569	0.287770	470.858002
6959.265667	1.544253	0.287770	1942.531128
6959.266596	0.714782	0.287770	2606.563232
6959.267488	0.094944	0.287770	2691.253174
6959.268420	0.090253	0.287770	2775.368652
6959.269326	0.090190	0.287770	2857.081299
6959.270221	0.090256	0.287770	2937.860840
6959.271110	0.090165	0.287770	3018.017334
6959.272046	0.090293	0.287770	3102.531494
6959.272965	0.090253	0.287770	3185.473633
6959.273866	0.090209	0.287770	3266.751709
6959.274759	0.090249	0.287770	3347.343994
6959.275687	0.090282	0.287770	3431.125732
6960.305611	1.064088	0.287351	466.070587
6960.306548	1.543718	0.287351	1912.534546
6960.307497	0.714595	0.287351	2590.685059
6960.308396	0.094468	0.287351	2675.611572
6960.309323	0.090095	0.287351	2759.129883
6960.310259	0.090183	0.287351	2843.541260
6960.311171	0.090238	0.287351	2925.838379
6960.312070	0.090212	0.287351	3006.939453
6960.313019	0.090157	0.287351	3092.498779
6960.313952	0.090231	0.287351	3176.684082
6960.314879	0.090253	0.287351	3260.348389
6960.315768	0.090157	0.287351	3340.498291
6960.316714	0.090168	0.287351	3425.797607
6961.305547	1.068911	0.307219	469.251953
6961.306520	1.544407	0.307219	1971.959717
6961.307451	0.675319	0.307219	2600.681396
6961.308370	0.093391	0.307219	2686.507812
6961.309254	0.090201	0.307219	2766.245850
6961.310198	0.090190	0.307219	2851.385742
6961.311136	0.090267	0.307219	2936.056396
6961.312027	0.090227	0.307219	3016.448730
6961.312950	0.090249	0.307219	3099.748535
6961.313863	0.090212	0.307219	3182.112549
6961.314786	0.090209	0.307219	3265.375244
6961.315686	0.090278	0.307219	3346.625732
6961.316606	0.090205	0.307219	3429.614502
6962.336758	1.090994	0.285152	524.767944
6962.337698	1.545527	0.285152	1977.563599
6962.338632	0.657598	0.285152	2591.759766
6962.339523	0.093860	0.285152	2675.388916
6962.340480	0.090212	0.285152	2761.722168
6962.341409	0.090242	0.285152	2845.556641
6962.342313	0.090212	0.285152	2927.108643
6962.343217	0.090238	0.285152	3008.683838
6962.344150	0.090271	0.285152	3092.906738
6962.345085	0.090168	0.285152	3177.214355
6962.345980	0.090201	0.285152	3257.944580
6962.346903	0.090209	0.285152	3341.207275
6962.347846	0.090242	0.285152	3426.305176
6963.346376	1.069611	0.300737	468.489441
6963.347274	1.541763	0.300737	1852.992432
6963.348272	0.695413	0.300737	2547.014160
6963.349174	0.094351	0.300737	2632.118408
6963.350070	0.090220	0.300737	2712.955322
6963.351010	0.090249	0.300737	2797.789307
6963.351912	0.090227	0.300737	2879.174072
6963.352817	0.090267	0.300737	2960.865967
6963.353703	0.090212	0.300737	3040.794189
6963.354645	0.090297	0.300737	3125.853516
6963.355548	0.090242	0.300737	3207.341797
6963.356446	0.090245	0.300737	3288.382080
6963.357373	0.090275	0.300737	3372.066650
6964.372946	1.081820	0.267423	480.328125
6964.373842	1.542759	0.267423	1862.640015
6964.374796	0.755186	0.267423	2583.086914
6964.375706	0.095555	0.267423	2670.042236
6964.376609	0.090253	0.267423	2751.540527
6964.377499	0.090319	0.267423	2831.924072
6964.378447	0.090311	0.267423	2917.539062
6964.379348	0.090282	0.267423	2998.883057
6964.380240	0.090157	0.267423	3079.303467
6964.381186	0.090275	0.267423	3164.703369
6964.382085	0.090275	0.267423	3245.860352
6964.382983	0.090234	0.267423	3326.890869
6964.383876	0.090271	0.267423	3407.502930
6965.385199	1.125366	0.286239	530.047485
6965.386113	1.544897	0.286239	1942.083740
6965.387056	0.695057	0.286239	2597.522949
6965.387949	0.094519	0.286239	2681.928467
6965.388910	0.090194	0.286239	2768.604980
6965.389814	0.090187	0.286239	2850.133789
6965.390704	0.090278	0.286239	2930.481445
6965.391648	0.090370	0.286239	3015.790527
6965.392568	0.090231	0.286239	3098.802734
6965.393488	0.090348	0.286239	3181.922852
6965.394375	0.090337	0.286239	3262.051758
6965.395325	0.090275	0.286239	3347.812744
6965.396224	0.090227	0.286239	3428.926758
6966.405121	1.097080	0.258247	543.054626
6966.406040	1.544993	0.258247	1962.902832
6966.406980	0.665526	0.258247	2588.497314
6966.407870	0.094076	0.258247	2672.224854
6966.408844	0.090161	0.258247	2760.041748
6966.409749	0.090198	0.258247	2841.670654
6966.410667	0.090128	0.258247	2924.408203
6966.411568	0.090165	0.258247	3005.646729
6966.412515	0.090194	0.258247	3091.060547
6966.413435	0.090183	0.258247	3174.029053
6966.414327	0.090187	0.258247	3254.475586
6966.415257	0.090216	0.258247	3338.376465
6966.416174	0.090326	0.258247	3421.205322
6967.422459	1.120360	0.278610	544.495056
6967.423410	1.544769	0.278610	2013.570557
6967.424342	0.637507	0.278610	2607.727295
6967.425229	0.093600	0.278610	2690.750488
6967.426179	0.090157	0.278610	2776.400146
6967.427122	0.090231	0.278610	2861.487793
6967.428015	0.090308	0.278610	2942.132568
6967.428932	0.090311	0.278610	3024.947998
6967.429873	0.090245	0.278610	3109.868896
6967.430791	0.090205	0.278610	3192.677246
6967.431690	0.090271	0.278610	3273.830811
6967.432639	0.090304	0.278610	3359.529297
6967.433573	0.090256	0.278610	3443.828613
6968.439799	1.127714	0.253328	541.302490
6968.440739	1.544879	0.253328	1993.488770
6968.441639	0.706388	0.253328	2629.237793
6968.442571	0.094204	0.253328	2717.036133
6968.443504	0.090231	0.253328	2801.221436
6968.444417	0.090286	0.253328	2883.652344
6968.445315	0.090267	0.253328	2964.712402
6968.446265	0.090275	0.253328	3050.473389
6968.447201	0.090311	0.253328	3135.004639
6968.448102	0.090311	0.253328	3216.375000
6968.449016	0.090330	0.253328	3298.936279
6968.449955	0.090278	0.253328	3383.707520
6968.450872	0.090234	0.253328	3466.452393
6969.457140	1.095205	0.276612	515.841614
6969.458044	1.543385	0.276612	1911.061768
6969.458944	0.772910	0.276612	2606.680908
6969.459907	0.094918	0.276612	2698.087158
6969.460852	0.090183	0.276612	2783.310303
6969.461743	0.090223	0.276612	2863.699219
6969.462665	0.090201	0.276612	2946.864990
6969.463592	0.090231	0.276612	3030.508789
6969.464509	0.090205	0.276612	3113.226807
6969.465407	0.090238	0.276612	3194.260498
6969.466353	0.090275	0.276612	3279.660400
6969.467274	0.090201	0.276612	3362.735840
6969.468200	0.090275	0.276612	3446.330078
6970.477022	1.091971	0.245960	488.111206
6970.477933	1.542601	0.245960	1893.420898
6970.478845	0.784999	0.245960	2609.339844
6970.479733	0.097244	0.245960	2695.692139
6970.480702	0.090289	0.245960	2783.182373
6970.481609	0.090297	0.245960	2865.081299
6970.482506	0.090220	0.245960	2946.008301
6970.483432	0.090374	0.245960	3029.694092
6970.484328	0.090344	0.245960	3110.642578
6970.485215	0.090278	0.245960	3190.719482
6970.486108	0.090253	0.245960	3271.315186
6970.487051	0.090370	0.245960	3356.533936
6970.487957	0.090330	0.245960	3438.372559
6971.492810	1.070266	0.268829	470.917084
6971.493780	1.544681	0.268829	1969.257935
6971.494708	0.695131	0.268829	2614.339111
6971.495602	0.094373	0.268829	2698.708252
6971.496526	0.090256	0.268829	2782.105225
6971.497447	0.090370	0.268829	2865.335937
6971.498354	0.090319	0.268829	2947.254883
6971.499253	0.090275	0.268829	3028.411865
6971.500188	0.090249	0.268829	3112.794678
6971.501093	0.090315	0.268829	3194.529785
6971.501998	0.090176	0.268829	3276.138916
6971.502885	0.090198	0.268829	3356.144287
6971.503830	0.090348	0.268829	3441.522949
6972.517374	1.087408	0.235160	535.004944
6972.518294	1.544451	0.235160	1955.899414
6972.519209	0.706205	0.235160	2602.076904
6972.520095	0.094988	0.235160	2686.236084
6972.521037	0.090289	0.235160	2771.288574
6972.521930	0.090234	0.235160	2851.867920
6972.522852	0.090227	0.235160	2935.057373
6972.523750	0.090315	0.235160	3016.160156
6972.524698	0.090143	0.235160	3101.615479
6972.525599	0.090256	0.235160	3182.936523
6972.526492	0.090194	0.235160	3263.479736
6972.527427	0.090256	0.235160	3347.869385
6972.528336	0.090297	0.235160	3429.948975
6973.528021	1.079081	0.262162	483.428162
6973.528941	1.542612	0.262162	1902.631592
6973.529842	0.791935	0.262162	2616.165039
6973.530780	0.096892	0.262162	2707.049805
6973.531696	0.090209	0.262162	2789.680908
6973.532615	0.090267	0.262162	2872.636475
6973.533502	0.090282	0.262162	2952.716553
6973.534451	0.090286	0.262162	3038.397705
6973.535352	0.090260	0.262162	3119.721924
6973.536262	0.090238	0.262162	3201.838623
6973.537155	0.090231	0.262162	3282.414551
6973.538109	0.090308	0.262162	3368.568115
6973.539011	0.090293	0.262162	3450.012451
6974.558719	1.116269	0.239624	543.623230
6974.559639	1.544623	0.239624	1964.676270
6974.560572	0.673861	0.239624	2593.388672
6974.561471	0.093970	0.239624	2677.867432
6974.562427	0.090187	0.239624	2764.085937
6974.563360	0.090234	0.239624	2848.274658
6974.564253	0.090297	0.239624	2928.909668
6974.565175	0.090242	0.239624	3012.112549
6974.566111	0.090242	0.239624	3096.578857
6974.567031	0.090308	0.239624	3179.661865
6974.567920	0.090275	0.239624	3259.916016
6974.568862	0.090333	0.239624	3345.010010
6974.569794	0.090227	0.239624	3429.101562
6975.562726	1.104174	0.264551	511.232361
6975.563654	1.544121	0.264551	1944.176758
6975.564552	0.760664	0.264551	2627.252930
6975.565472	0.095347	0.264551	2714.971924
6975.566416	0.090114	0.264551	2800.039062
6975.567330	0.090319	0.264551	2882.590332
6975.568219	0.090278	0.264551	2962.847656
6975.569165	0.090234	0.264551	3048.209473
6975.570098	0.090201	0.264551	3132.367432
6975.570991	0.090333	0.264551	3213.034912
6975.571912	0.090304	0.264551	3296.204834
6975.572844	0.090330	0.264551	3380.392090
6975.573778	0.090238	0.264551	3464.674316
6976.597974	1.088855	0.255084	489.984711
6976.598872	1.542312	0.255084	1874.980957
6976.599852	0.703176	0.255084	2564.093750
6976.600757	0.094512	0.255084	2649.626953
6976.601660	0.090187	0.255084	2731.065674
6976.602547	0.090267	0.255084	2811.132812
6976.603491	0.090271	0.255084	2896.348633
6976.604389	0.090183	0.255084	2977.333008
6976.605286	0.090227	0.255084	3058.266602
6976.606222	0.090223	0.255084	3142.715576
6976.607130	0.090414	0.255084	3224.811279
6976.608038	0.090194	0.255084	3306.707520
6976.608926	0.090194	0.255084	3386.799805
6977.594327	1.081194	0.270005	484.374817
6977.595225	1.542184	0.270005	1869.255859
6977.596178	0.759818	0.270005	2593.362549
6977.597076	0.095702	0.270005	2679.302734
6977.597970	0.090146	0.270005	2759.893799
6977.598858	0.090256	0.270005	2840.041504
6977.599801	0.090286	0.270005	2925.180908
6977.600692	0.090267	0.270005	3005.609131
6977.601595	0.090238	0.270005	3087.093994
6977.602484	0.090249	0.270005	3167.325439
6977.603417	0.090344	0.270005	3251.616699
6977.604324	0.090201	0.270005	3333.429443
6977.605231	0.090319	0.270005	3415.348389
6978.635230	1.087617	0.265502	492.690613
6978.636130	1.542656	0.265502	1881.081299
6978.637054	0.781150	0.265502	2602.863770
6978.637998	0.094526	0.265502	2692.096680
6978.638916	0.090209	0.265502	2774.908203
6978.639812	0.090253	0.265502	2855.774658
6978.640767	0.090212	0.265502	2941.927490
6978.641674	0.090260	0.265502	3023.793213
6978.642599	0.090231	0.265502	3107.256592
6978.643492	0.090256	0.265502	3187.855469
6978.644453	0.090289	0.265502	3274.623535
6978.645378	0.090190	0.265502	3358.049805
6978.646268	0.090231	0.265502	3438.355225
6979.629007	1.067065	0.266956	469.508820
6979.629901	1.541254	0.266956	1847.389526
6979.630879	0.734542	0.266956	2565.771973
6979.631793	0.094845	0.266956	2652.460205
6979.632722	0.090154	0.266956	2736.213135
6979.633613	0.090282	0.266956	2816.654297
6979.634569	0.090209	0.266956	2902.893799
6979.635495	0.090286	0.266956	2986.498291
6979.636382	0.090212	0.266956	3066.516602
6979.637323	0.090081	0.266956	3151.282471
6979.638237	0.090150	0.266956	3233.679687
6979.639151	0.090271	0.266956	3316.187500
6979.640046	0.090249	0.266956	3396.960449
6980.670976	1.092217	0.261787	535.186218
6980.671908	1.545150	0.261787	1975.266113
6980.672840	0.665266	0.261787	2595.294189
6980.673737	0.093651	0.261787	2679.299316
6980.674656	0.090150	0.261787	2762.147217
6980.675594	0.090183	0.261787	2846.739014
6980.676515	0.090187	0.261787	2929.801025
6980.677408	0.090275	0.261787	3010.416260
6980.678360	0.090198	0.261787	3096.284424
6980.679291	0.090209	0.261787	3180.268799
6980.680201	0.090216	0.261787	3262.365479
6980.681110	0.090176	0.261787	3344.335205
6980.682044	0.090242	0.261787	3428.620850
6981.673436	1.082750	0.244131	480.741089
6981.674335	1.542056	0.244131	1867.049072
6981.675315	0.703715	0.244131	2556.689453
6981.676243	0.093772	0.244131	2643.709961
6981.677165	0.090132	0.244131	2726.811523
6981.678053	0.090099	0.244131	2806.819336
6981.678984	0.090110	0.244131	2890.711670
6981.679919	0.090201	0.244131	2975.050049
6981.680816	0.090198	0.244131	3055.957520
6981.681738	0.090194	0.244131	3139.116455
6981.682668	0.090150	0.244131	3222.956055
6981.683593	0.090242	0.244131	3306.429687
6981.684485	0.090132	0.244131	3386.827393
6982.699009	1.108788	0.276527	543.306030
6982.699932	1.544777	0.276527	1969.134766
6982.700846	0.702927	0.276527	2611.610352
6982.701735	0.094849	0.276527	2695.930664
6982.702691	0.090231	0.276527	2782.191162
6982.703594	0.090139	0.276527	2863.586914
6982.704491	0.090271	0.276527	2944.560059
6982.705399	0.090242	0.276527	3026.499512
6982.706332	0.090304	0.276527	3110.753174
6982.707243	0.090172	0.276527	3192.899902
6982.708137	0.090132	0.276527	3273.477783
6982.709074	0.090260	0.276527	3358.051514
6982.709973	0.090256	0.276527	3439.191895
6983.717334	1.071409	0.246895	478.919647
6983.718232	1.541993	0.246895	1863.629761
6983.719127	0.834763	0.246895	2610.742676
6983.720077	0.095878	0.246895	2701.826416
6983.720982	0.090179	0.246895	2783.438721
6983.721908	0.090286	0.246895	2867.043213
6983.722797	0.090205	0.246895	2947.235596
6983.723742	0.090212	0.246895	3032.486328
6983.724641	0.090172	0.246895	3113.551025
6983.725534	0.090227	0.246895	3194.123779
6983.726463	0.090326	0.246895	3278.036621
6983.727374	0.090201	0.246895	3360.210205
6983.728301	0.090264	0.246895	3443.884521
6984.725458	1.078799	0.289643	482.223053
6984.726353	1.541342	0.289643	1861.723755
6984.727339	0.708977	0.289643	2560.775146
6984.728264	0.093867	0.289643	2647.602295
6984.729155	0.090161	0.289643	2727.935791
6984.730092	0.090264	0.289643	2812.512939
6984.730996	0.090205	0.289643	2894.058350
6984.731914	0.090253	0.289643	2976.910400
6984.732816	0.090187	0.289643	3058.258789
6984.733758	0.090212	0.289643	3143.238770
6984.734665	0.090212	0.289643	3225.061523
6984.735558	0.090183	0.289643	3305.594971
6984.736462	0.090216	0.289643	3387.150391
6985.759196	1.088580	0.261207	497.481232
6985.760093	1.542982	0.261207	1881.536255
6985.761032	0.761360	0.261207	2596.453125
6985.761980	0.094852	0.261207	2686.373047
6985.762898	0.090216	0.261207	2769.191406
6985.763788	0.090187	0.261207	2849.457520
6985.764732	0.090172	0.261207	2934.580078
6985.765665	0.090088	0.261207	3018.632080
6985.766577	0.090172	0.261207	3100.869141
6985.767481	0.090179	0.261207	3182.391357
6985.768427	0.090198	0.261207	3267.718506
6985.769365	0.090260	0.261207	3352.382324
6985.770266	0.090275	0.261207	3433.719727
6986.753999	1.077316	0.296230	477.250854
6986.754972	1.543989	0.296230	1979.552490
6986.755892	0.694523	0.296230	2618.513428
6986.756800	0.094464	0.296230	2704.286865
6986.757691	0.090176	0.296230	2784.633545
6986.758621	0.090271	0.296230	2868.585449
6986.759527	0.090282	0.296230	2950.380859
6986.760428	0.090260	0.296230	3031.705078
6986.761319	0.090194	0.296230	3112.068115
6986.762280	0.090249	0.296230	3198.797363
6986.763182	0.090227	0.296230	3280.182129
6986.764081	0.090212	0.296230	3361.283203
6986.764995	0.090227	0.296230	3443.750732
6987.799569	1.146522	0.255290	576.700623
6987.800472	1.545505	0.255290	1972.291992
6987.801411	0.681903	0.255290	2612.599121
6987.802299	0.094197	0.255290	2696.245850
6987.803244	0.090198	0.255290	2781.482666
6987.804149	0.090234	0.255290	2863.144775
6987.805044	0.090238	0.255290	2943.907715
6987.805979	0.090242	0.255290	3028.283691
6987.806886	0.090234	0.255290	3110.126221
6987.807811	0.090150	0.255290	3193.515137
6987.808700	0.090209	0.255290	3273.710693
6987.809646	0.090238	0.255290	3359.075928
6987.810546	0.090176	0.255290	3440.234131
6988.793836	1.112878	0.258162	517.488464
6988.794774	1.544725	0.258162	1966.440674
6988.795674	0.737908	0.258162	2630.557617
6988.796624	0.094006	0.258162	2719.863770
6988.797519	0.090106	0.258162	2800.508789
6988.798430	0.090150	0.258162	2882.635498
6988.799324	0.090256	0.258162	2963.324707
6988.800274	0.090220	0.258162	3049.033447
6988.801188	0.090168	0.258162	3131.447510
6988.802077	0.090242	0.258162	3211.672363
6988.803018	0.090282	0.258162	3296.627686
6988.803937	0.090220	0.258162	3379.539551
6988.804859	0.090139	0.258162	3462.647949
6989.829584	1.069014	0.271298	468.227966
6989.830480	1.541678	0.271298	1849.571777
6989.831468	0.715093	0.271298	2556.083496
6989.832397	0.094065	0.271298	2643.469727
6989.833285	0.090194	0.271298	2723.562012
6989.834209	0.090253	0.271298	2806.955566
6989.835159	0.090234	0.271298	2892.678223
6989.836092	0.090267	0.271298	2976.897705
6989.836978	0.090216	0.271298	3056.829102
6989.837917	0.090278	0.271298	3141.600342
6989.838851	0.090212	0.271298	3225.858643
6989.839766	0.090286	0.271298	3308.469971
6989.840667	0.090220	0.271298	3389.758057
6990.841806	1.076576	0.247765	470.463715
6990.842724	1.543070	0.247765	1887.002075
6990.843642	0.784442	0.247765	2607.119873
6990.844551	0.097061	0.247765	2695.347900
6990.845490	0.090223	0.247765	2780.067627
6990.846395	0.090304	0.247765	2861.792725
6990.847287	0.090348	0.247765	2942.383057
6990.848222	0.090311	0.247765	3026.824219
6990.849133	0.090267	0.247765	3109.057861
6990.850034	0.090315	0.247765	3190.431641
6990.850928	0.090256	0.247765	3271.120850
6990.851876	0.090381	0.247765	3356.802002
6990.852780	0.090260	0.247765	3438.396973
6991.855577	1.086423	0.286131	482.371948
6991.856486	1.542561	0.286131	1884.559937
6991.857386	0.812025	0.286131	2615.382568
6991.858319	0.097852	0.286131	2706.677979
6991.859241	0.090198	0.286131	2789.840332
6991.860150	0.090176	0.286131	2871.810059
6991.861039	0.090231	0.286131	2952.025146
6991.861989	0.090245	0.286131	3037.758301
6991.862901	0.090238	0.286131	3120.055420
6991.863801	0.090187	0.286131	3201.223633
6991.864686	0.090322	0.286131	3281.158936
6991.865621	0.090311	0.286131	3365.600098
6991.866527	0.090209	0.286131	3447.329102
6992.882124	1.076184	0.268704	471.368622
6992.883097	1.544659	0.268704	1974.322388
6992.884034	0.684001	0.268704	2615.231689
6992.884924	0.094116	0.268704	2698.995117
6992.885854	0.090220	0.268704	2782.899414
6992.886778	0.090256	0.268704	2866.296387
6992.887692	0.090311	0.268704	2948.840820
6992.888587	0.090227	0.268704	3029.593994
6992.889530	0.090249	0.268704	3114.698730
6992.890452	0.090253	0.268704	3197.911621
6992.891372	0.090286	0.268704	3280.974365
6992.892263	0.090216	0.268704	3361.356934
6992.893212	0.090278	0.268704	3447.031006
6993.883117	1.084915	0.300741	502.315430
6993.884032	1.543630	0.300741	1914.737183
6993.884963	0.729554	0.300741	2593.952393
6993.885863	0.095039	0.300741	2679.487549
6993.886813	0.090183	0.300741	2765.161621
6993.887743	0.090245	0.300741	2849.089844
6993.888644	0.090256	0.300741	2930.410889
6993.889563	0.090183	0.300741	3013.289062
6993.890493	0.090256	0.300741	3097.227539
6993.891416	0.090220	0.300741	3180.500244
6993.892308	0.090227	0.300741	3260.982666
6993.893233	0.090249	0.300741	3344.462891
6993.894167	0.090260	0.300741	3428.765625
6994.923998	1.093700	0.263653	491.071259
6994.924946	1.544238	0.263653	1955.009155
6994.925881	0.692805	0.263653	2602.781982
6994.926806	0.094479	0.263653	2690.174805
6994.927735	0.090146	0.263653	2773.920898
6994.928652	0.090223	0.263653	2856.655762
6994.929550	0.090187	0.263653	2937.643555
6994.930474	0.090205	0.263653	3020.993164
6994.931422	0.090154	0.263653	3106.458984
6994.932335	0.090260	0.263653	3188.866455
6994.933225	0.090209	0.263653	3269.152344
6994.934173	0.090249	0.263653	3354.708496
6994.935106	0.090183	0.263653	3438.849365
6995.914718	1.082959	0.295646	479.750824
6995.915643	1.543096	0.295646	1907.114380
6995.916553	0.772020	0.295646	2609.652832
6995.917493	0.096515	0.295646	2700.376709
6995.918403	0.090223	0.295646	2782.479980
6995.919315	0.090245	0.295646	2864.783691
6995.920216	0.090271	0.295646	2946.117920
6995.921170	0.090304	0.295646	3032.267822
6995.922072	0.090227	0.295646	3113.652588
6995.922973	0.090337	0.295646	3195.046143
6995.923859	0.090253	0.295646	3275.010010
6995.924791	0.090216	0.295646	3359.091309
6995.925698	0.090249	0.295646	3440.947266
6996.963781	1.062103	0.244075	458.828613
6996.964748	1.542956	0.244075	1950.867554
6996.965674	0.711475	0.244075	2609.693115
6996.966567	0.094962	0.244075	2694.494385
6996.967455	0.090150	0.244075	2774.547607
6996.968398	0.090293	0.244075	2859.693848
6996.969292	0.090205	0.244075	2940.337158
6996.970183	0.090278	0.244075	3020.775146
6996.971103	0.090234	0.244075	3103.790771
6996.972020	0.090234	0.244075	3186.535645
6996.972925	0.090377	0.244075	3268.326904
6996.973850	0.090249	0.244075	3351.807129
6996.974740	0.090238	0.244075	3432.118896
6997.956053	1.072852	0.259238	479.564636
6997.956953	1.542184	0.259238	1867.530029
6997.957854	0.814911	0.259238	2601.764648
6997.958822	0.095255	0.259238	2693.971680
6997.959717	0.090183	0.259238	2774.685547
6997.960610	0.090278	0.259238	2855.304199
6997.961545	0.090271	0.259238	2939.707520
6997.962458	0.090282	0.259238	3022.135010
6997.963359	0.090308	0.259238	3103.502197
6997.964246	0.090238	0.259238	3183.543457
6997.965174	0.090267	0.259238	3267.311523
6997.966088	0.090168	0.259238	3349.725586
6997.967011	0.090256	0.259238	3433.032227
6998.997972	1.076312	0.245654	472.501099
6998.998874	1.541913	0.245654	1863.306519
6998.999862	0.687916	0.245654	2542.967773
6999.000788	0.093527	0.245654	2629.573486
6999.001679	0.090190	0.245654	2709.933105
6999.002594	0.090234	0.245654	2792.497559
6999.003541	0.090201	0.245654	2877.918213
6999.004457	0.090282	0.245654	2960.616455
6999.005346	0.090300	0.245654	3040.893311
6999.006292	0.090187	0.245654	3126.209961
6999.007229	0.090238	0.245654	3210.762939
6999.008121	0.090256	0.245654	3291.271484
6999.009040	0.090267	0.245654	3374.227051
7000.000483	1.078480	0.234379	485.316101
7000.001383	1.542488	0.234379	1873.555176
7000.002282	0.814838	0.234379	2606.094238
7000.003227	0.096281	0.234379	2697.079346
7000.004171	0.090205	0.234379	2782.232910
7000.005070	0.090245	0.234379	2863.363525
7000.005982	0.090260	0.234379	2945.680664
7000.006914	0.090238	0.234379	3029.782471
7000.007828	0.090220	0.234379	3112.243408
7000.008723	0.090308	0.234379	3193.068848
7000.009672	0.090249	0.234379	3278.715088
7000.010593	0.090275	0.234379	3361.858154
7000.011504	0.090267	0.234379	3444.091797
7001.028550	1.065300	0.261280	462.340302
7001.029495	1.541722	0.261280	1919.268066
7001.030450	0.709248	0.261280	2596.599854
7001.031372	0.093629	0.261280	2682.926025
7001.032273	0.090168	0.261280	2764.167725
7001.033217	0.090183	0.261280	2849.300537
7001.034139	0.090198	0.261280	2932.462891
7001.035055	0.090249	0.261280	3015.131104
7001.035941	0.090264	0.261280	3095.104736
7001.036887	0.090278	0.261280	3180.508057
7001.037821	0.090264	0.261280	3264.814209
7001.038733	0.090271	0.261280	3347.141357
7001.039622	0.090190	0.261280	3427.320557
7002.036677	1.077151	0.237940	468.560608
7002.037650	1.545234	0.237940	1972.073486
7002.038580	0.686221	0.237940	2610.258789
7002.039475	0.094226	0.237940	2694.591064
7002.040409	0.090304	0.237940	2778.935059
7002.041299	0.090253	0.237940	2859.260010
7002.042200	0.090176	0.237940	2940.508301
7002.043086	0.090187	0.237940	3020.413818
7002.044032	0.090352	0.237940	3105.886475
7002.044925	0.090238	0.237940	3186.468994
7002.045825	0.090216	0.237940	3267.663574
7002.046713	0.090271	0.237940	3347.824219
7002.047653	0.090333	0.237940	3432.737549
7003.060740	1.113204	0.274481	553.262573
7003.061665	1.545106	0.274481	1982.485840
7003.062571	0.702711	0.274481	2619.142090
7003.063460	0.094929	0.274481	2703.534180
7003.064406	0.090249	0.274481	2788.909668
7003.065294	0.090253	0.274481	2869.053955
7003.066210	0.090245	0.274481	2951.718750
7003.067103	0.090264	0.274481	3032.324219
7003.068050	0.090238	0.274481	3117.779541
7003.068959	0.090267	0.274481	3199.832520
7003.069849	0.090366	0.274481	3280.258545
7003.070784	0.090286	0.274481	3364.675537
7003.071689	0.090275	0.274481	3446.374023
7004.071918	1.099600	0.248466	513.513000
7004.072826	1.543154	0.248466	1914.697021
7004.073723	0.784794	0.248466	2618.656982
7004.074659	0.096936	0.248466	2709.389160
7004.075578	0.090212	0.248466	2792.294434
7004.076509	0.090264	0.248466	2876.329834
7004.077421	0.090212	0.248466	2958.603516
7004.078365	0.090278	0.248466	3043.826172
7004.079280	0.090337	0.248466	3126.484375
7004.080196	0.090227	0.248466	3209.132324
7004.081085	0.090293	0.248466	3289.402832
7004.082034	0.090227	0.248466	3375.028320
7004.082966	0.090223	0.248466	3459.116455
7005.093832	1.068289	0.282110	465.773804
7005.094731	1.541331	0.282110	1851.429932
7005.095713	0.711156	0.282110	2549.785156
7005.096654	0.093761	0.282110	2638.014160
7005.097552	0.090275	0.282110	2719.080811
7005.098472	0.090165	0.282110	2802.032471
7005.099414	0.090212	0.282110	2887.012451
7005.100327	0.090289	0.282110	2969.446533
7005.101215	0.090205	0.282110	3049.548584
7005.102166	0.090201	0.282110	3135.330078
7005.103102	0.090198	0.282110	3219.755127
7005.104013	0.090260	0.282110	3301.981934
7005.104911	0.090256	0.282110	3383.032227
7006.105033	1.068783	0.254613	468.126923
7006.106006	1.544022	0.254613	1970.460571
7006.106943	0.674260	0.254613	2602.242432
7006.107843	0.093849	0.254613	2686.706543
7006.108760	0.090242	0.254613	2769.458252
7006.109696	0.090311	0.254613	2853.989502
7006.110627	0.090183	0.254613	2937.949951
7006.111523	0.090242	0.254613	3018.806396
7006.112443	0.090194	0.254613	3101.784912
7006.113357	0.090220	0.254613	3184.245850
7006.114286	0.090216	0.254613	3268.056641
7006.115187	0.090242	0.254613	3349.364502
7006.116108	0.090260	0.254613	3432.493896
7007.129034	1.063315	0.282892	461.478882
7007.129989	1.542847	0.282892	1934.897461
7007.130907	0.737205	0.282892	2611.651367
7007.131801	0.095500	0.282892	2697.028809
7007.132686	0.090103	0.282892	2776.769531
7007.133624	0.090278	0.282892	2861.450684
7007.134534	0.090231	0.282892	2943.560547
7007.135428	0.090238	0.282892	3024.233398
7007.136360	0.090216	0.282892	3108.314697
7007.137275	0.090278	0.282892	3190.919434
7007.138174	0.090205	0.282892	3272.013916
7007.139068	0.090209	0.282892	3352.660645
7007.140012	0.090304	0.282892	3437.907471
7008.138206	1.075602	0.256921	481.869629
7008.139108	1.542202	0.256921	1872.935913
7008.140060	0.770914	0.256921	2606.846191
7008.140973	0.094585	0.256921	2693.202148
7008.141877	0.090125	0.256921	2774.674805
7008.142769	0.090264	0.256921	2855.189941
7008.143700	0.090264	0.256921	2939.225342
7008.144624	0.090205	0.256921	3022.574951
7008.145526	0.090308	0.256921	3104.032471
7008.146416	0.090209	0.256921	3184.318359
7008.147356	0.090212	0.256921	3269.117920
7008.148253	0.090154	0.256921	3349.985840
7008.149148	0.090322	0.256921	3430.824219
7009.164775	1.080718	0.280757	485.242249
7009.165678	1.542426	0.280757	1878.052490
7009.166579	0.812106	0.280757	2609.759766
7009.167536	0.097712	0.280757	2703.270508
7009.168453	0.090066	0.280757	2785.860840
7009.169364	0.090260	0.280757	2868.087646
7009.170260	0.090282	0.280757	2948.980225
7009.171196	0.090187	0.280757	3033.395020
7009.172108	0.090264	0.280757	3115.715576
7009.173025	0.090253	0.280757	3198.477295
7009.173916	0.090249	0.280757	3278.889160
7009.174870	0.090227	0.280757	3364.965820
7009.175796	0.090212	0.280757	3448.502441
7010.171381	1.113534	0.260353	532.269226
7010.172323	1.545000	0.260353	1987.659180
7010.173249	0.668372	0.260353	2606.571289
7010.174137	0.094182	0.260353	2690.205078
7010.175091	0.090198	0.260353	2776.253662
7010.176018	0.090245	0.260353	2859.911133
7010.176916	0.090253	0.260353	2940.958008
7010.177859	0.090264	0.260353	3026.076660
7010.178805	0.090201	0.260353	3111.407227
7010.179710	0.090253	0.260353	3193.085937
7010.180605	0.090234	0.260353	3273.845703
7010.181544	0.090198	0.260353	3358.541504
7010.182469	0.090198	0.260353	3441.974365
7011.202032	1.087518	0.284064	508.958588
7011.202947	1.543883	0.284064	1921.611694
7011.203875	0.725262	0.284064	2594.655273
7011.204776	0.094944	0.284064	2680.199707
7011.205739	0.090187	0.284064	2767.049561
7011.206683	0.090264	0.284064	2852.258545
7011.207586	0.090238	0.284064	2933.743408
7011.208504	0.090286	0.284064	3016.625732
7011.209438	0.090209	0.284064	3100.880615
7011.210358	0.090194	0.284064	3183.859131
7011.211249	0.090183	0.284064	3264.212402
7011.212191	0.090212	0.284064	3349.192383
7011.213113	0.090245	0.284064	3432.398682
7012.203979	1.065351	0.274549	467.689301
7012.204874	1.541137	0.274549	1847.006470
7012.205853	0.733575	0.274549	2565.176758
7012.206795	0.094248	0.274549	2653.958496
7012.207693	0.090157	0.274549	2734.919922
7012.208626	0.090198	0.274549	2819.074463
7012.209568	0.090278	0.274549	2904.116699
7012.210478	0.090205	0.274549	2986.203369
7012.211377	0.090205	0.274549	3067.297852
7012.212311	0.090234	0.274549	3151.576660
7012.213242	0.090183	0.274549	3235.537109
7012.214174	0.090260	0.274549	3319.659424
7012.215074	0.090212	0.274549	3400.850586
7013.241809	1.079246	0.275629	478.105774
7013.242711	1.542034	0.275629	1869.020264
7013.243689	0.709746	0.275629	2563.151855
7013.244592	0.094614	0.275629	2648.588623
7013.245481	0.090220	0.275629	2728.793945
7013.246412	0.090271	0.275629	2812.836182
7013.247314	0.090220	0.275629	2894.214355
7013.248208	0.090311	0.275629	2974.952637
7013.249098	0.090242	0.275629	3055.267822
7013.250055	0.090308	0.275629	3141.692139
7013.250943	0.090190	0.275629	3221.781250
7013.251855	0.090220	0.275629	3304.061523
7013.252757	0.090176	0.275629	3385.400146
7014.237652	1.070636	0.282839	476.432983
7014.238551	1.542111	0.282839	1862.790405
7014.239497	0.785182	0.282839	2605.572510
7014.240397	0.096112	0.282839	2692.073486
7014.241295	0.090150	0.282839	2773.028320
7014.242184	0.090253	0.282839	2853.262939
7014.243126	0.090267	0.282839	2938.294678
7014.244038	0.090183	0.282839	3020.541748
7014.244938	0.090242	0.282839	3101.759277
7014.245824	0.090297	0.282839	3181.762207
7014.246773	0.090231	0.282839	3267.391113
7014.247678	0.090256	0.282839	3349.072998
7014.248601	0.090190	0.282839	3432.318848
7015.282151	1.092535	0.260486	497.103607
7015.283051	1.543037	0.260486	1885.837036
7015.283991	0.756665	0.260486	2597.102051
7015.284927	0.094933	0.260486	2685.959229
7015.285843	0.090205	0.260486	2768.587158
7015.286731	0.090176	0.260486	2848.663330
7015.287667	0.090179	0.260486	2933.071289
7015.288609	0.090264	0.260486	3018.099609
7015.289510	0.090267	0.260486	3099.430420
7015.290427	0.090234	0.260486	3182.175293
7015.291356	0.090143	0.260486	3265.917969
7015.292293	0.090198	0.260486	3350.433350
7015.293192	0.090198	0.260486	3431.521240
7016.276432	1.076924	0.287528	477.077271
7016.277329	1.541876	0.287528	1860.140259
7016.278310	0.710468	0.287528	2557.108887
7016.279246	0.094156	0.287528	2645.239258
7016.280143	0.090209	0.287528	2726.156494
7016.281070	0.090194	0.287528	2809.766357
7016.282012	0.090176	0.287528	2894.711914
7016.282919	0.090201	0.287528	2976.524658
7016.283816	0.090275	0.287528	3057.500977
7016.284756	0.090242	0.287528	3142.328125
7016.285693	0.090249	0.287528	3226.891357
7016.286611	0.090135	0.287528	3309.635742
7016.287508	0.090231	0.287528	3390.572754
7017.316308	1.081864	0.243857	480.347626
7017.317209	1.542440	0.243857	1870.086304
7017.318108	0.830200	0.243857	2616.436279
7017.319048	0.096273	0.243857	2706.933105
7017.319957	0.090161	0.243857	2788.889648
7017.320866	0.090157	0.243857	2870.842773
7017.321756	0.090168	0.243857	2951.092773
7017.322708	0.090194	0.243857	3036.957520
7017.323618	0.090201	0.243857	3119.040771
7017.324512	0.090223	0.243857	3199.700439
7017.325439	0.090201	0.243857	3283.317139
7017.326348	0.090385	0.243857	3365.476562
7017.327250	0.090172	0.243857	3446.811768
7018.315728	1.071910	0.291041	472.712463
7018.316689	1.544088	0.291041	1956.581055
7018.317594	0.733627	0.291041	2620.513184
7018.318486	0.095336	0.291041	2705.552734
7018.319415	0.090190	0.291041	2789.339600
7018.320339	0.090194	0.291041	2872.678955
7018.321243	0.090176	0.291041	2954.197754
7018.322135	0.090198	0.291041	3034.654053
7018.323076	0.090179	0.291041	3119.512939
7018.323988	0.090198	0.291041	3201.773193
7018.324910	0.090161	0.291041	3284.901855
7018.325798	0.090143	0.291041	3364.948730
7018.326751	0.090194	0.291041	3450.903809
7019.343357	1.093400	0.256438	534.672424
7019.344320	1.545110	0.256438	2022.613281
7019.345244	0.629231	0.256438	2604.022705
7019.346134	0.093417	0.256438	2687.163574
7019.347077	0.090125	0.256438	2772.150879
7019.348014	0.090249	0.256438	2856.714111
7019.348923	0.090271	0.256438	2938.770508
7019.349821	0.090143	0.256438	3019.718750
7019.350770	0.090216	0.256438	3105.333740
7019.351717	0.090179	0.256438	3190.733643
7019.352634	0.090260	0.256438	3273.501953
7019.353526	0.090187	0.256438	3353.948486
7019.354475	0.090176	0.256438	3439.525391
7020.357067	1.077502	0.283935	471.946045
7020.358050	1.544777	0.283935	1990.461426
7020.358978	0.662725	0.283935	2605.469727
7020.359867	0.093889	0.283935	2688.937256
7020.360783	0.090084	0.283935	2771.454346
7020.361721	0.090132	0.283935	2855.998047
7020.362640	0.090242	0.283935	2938.930176
7020.363528	0.090209	0.283935	3019.035645
7020.364472	0.090190	0.283935	3104.175293
7020.365409	0.090161	0.283935	3188.656250
7020.366302	0.090245	0.283935	3269.245361
7020.367222	0.090198	0.283935	3352.227295
7020.368160	0.090253	0.283935	3436.884277
7021.370862	1.080447	0.265630	509.970917
7021.371812	1.544791	0.265630	1977.522583
7021.372752	0.665519	0.265630	2603.110352
7021.373642	0.093625	0.265630	2686.437012
7021.374567	0.090161	0.265630	2769.836182
7021.375488	0.090238	0.265630	2852.945312
7021.376399	0.090249	0.265630	2935.162109
7021.377298	0.090242	0.265630	3016.289307
7021.378217	0.090267	0.265630	3099.244873
7021.379129	0.090374	0.265630	3181.665527
7021.380035	0.090205	0.265630	3263.391357
7021.380926	0.090293	0.265630	3343.842285
7021.381867	0.090315	0.265630	3428.828613
7022.398414	1.091162	0.281123	484.475952
7022.399400	1.545864	0.281123	2008.698120
7022.400308	0.683375	0.281123	2629.202881
7022.401197	0.094402	0.281123	2713.126221
7022.402138	0.090278	0.281123	2798.078125
7022.403037	0.090209	0.281123	2879.175781
7022.403938	0.090223	0.281123	2960.467041
7022.404827	0.090227	0.281123	3040.678955
7022.405755	0.090326	0.281123	3124.501465
7022.406664	0.090326	0.281123	3206.607666
7022.407566	0.090242	0.281123	3288.005615
7022.408454	0.090289	0.281123	3368.182617
7022.409408	0.090260	0.281123	3454.290771
7023.401419	1.063458	0.269256	464.731293
7023.402399	1.541719	0.269256	1975.615845
7023.403305	0.710870	0.269256	2619.664307
7023.404224	0.093959	0.269256	2706.012451
7023.405127	0.090106	0.269256	2787.378418
7023.406063	0.090308	0.269256	2871.906250
7023.406973	0.090238	0.269256	2954.022949
7023.407893	0.090297	0.269256	3037.095947
7023.408782	0.090216	0.269256	3117.298096
7023.409727	0.090110	0.269256	3202.451904
7023.410626	0.090216	0.269256	3283.556152
7023.411515	0.090209	0.269256	3363.751709
7023.412454	0.090267	0.269256	3448.512695
7024.441298	1.071768	0.269457	474.793030
7024.442190	1.541272	0.269457	1849.607666
7024.443169	0.722498	0.269457	2556.932617
7024.444068	0.095134	0.269457	2642.458252
7024.444962	0.090212	0.269457	2723.108154
7024.445875	0.090114	0.269457	2805.381836
7024.446803	0.090146	0.269457	2889.037842
7024.447723	0.090103	0.269457	2971.932129
7024.448627	0.090231	0.269457	3053.500732
7024.449567	0.090209	0.269457	3138.296875
7024.450474	0.090205	0.269457	3220.112793
7024.451400	0.090216	0.269457	3303.652832
7024.452288	0.090242	0.269457	3383.787354
7025.437671	1.103657	0.285583	515.407959
7025.438576	1.543667	0.285583	1912.426514
7025.439544	0.693380	0.285583	2583.618408
7025.440452	0.094039	0.285583	2669.006104
7025.441376	0.090190	0.285583	2752.342041
7025.442263	0.090187	0.285583	2832.337646
7025.443220	0.090234	0.285583	2918.691895
7025.444140	0.090260	0.285583	3001.731201
7025.445030	0.090271	0.285583	3082.072266
7025.445981	0.090297	0.285583	3167.944336
7025.446882	0.090260	0.285583	3249.268555
7025.447797	0.090267	0.285583	3331.863281
7025.448693	0.090341	0.285583	3412.808350
7026.476531	1.105675	0.257816	529.618347
7026.477471	1.544963	0.257816	1981.883789
7026.478409	0.651709	0.257816	2593.186768
7026.479306	0.093483	0.257816	2677.040771
7026.480226	0.090132	0.257816	2759.962158
7026.481161	0.090253	0.257816	2844.348389
7026.482078	0.090242	0.257816	2927.100098
7026.482965	0.090172	0.257816	3007.082764
7026.483923	0.090286	0.257816	3093.576416
7026.484860	0.090245	0.257816	3178.136230
7026.485758	0.090220	0.257816	3259.153564
7026.486683	0.090139	0.257816	3342.532227
7026.487607	0.090201	0.257816	3425.878418
7027.478002	1.107770	0.290155	520.651794
7027.478910	1.543704	0.290155	1922.334717
7027.479820	0.758057	0.290155	2612.166260
7027.480761	0.094460	0.290155	2701.053467
7027.481700	0.090125	0.290155	2785.680420
7027.482602	0.090231	0.290155	2867.068604
7027.483527	0.090172	0.290155	2950.477783
7027.484465	0.090223	0.290155	3035.107422
7027.485381	0.090223	0.290155	3117.751953
7027.486267	0.090223	0.290155	3197.689941
7027.487216	0.090179	0.290155	3283.270264
7027.488155	0.090187	0.290155	3367.955566
7027.489077	0.090168	0.290155	3451.090820
7028.504008	1.075448	0.259951	468.895355
7028.504972	1.544333	0.259951	1957.632812
7028.505903	0.697306	0.259951	2606.824707
7028.506800	0.094321	0.259951	2691.430908
7028.507724	0.090256	0.259951	2774.827881
7028.508622	0.090322	0.259951	2855.937256
7028.509522	0.090242	0.259951	2937.154785
7028.510411	0.090289	0.259951	3017.421875
7028.511364	0.090348	0.259951	3103.523437
7028.512267	0.090234	0.259951	3185.005127
7028.513162	0.090176	0.259951	3265.712402
7028.514050	0.090234	0.259951	3345.840576
7028.514999	0.090282	0.259951	3431.518066
7029.519331	1.101339	0.276447	505.514648
7029.520236	1.542059	0.276447	1901.078369
7029.521199	0.698903	0.276447	2574.121582
7029.522107	0.094146	0.276447	2659.605713
7029.523015	0.090143	0.276447	2741.455322
7029.523903	0.090198	0.276447	2821.551025
7029.524851	0.090256	0.276447	2907.114014
7029.525755	0.090216	0.276447	2988.669434
7029.526653	0.090278	0.276447	3069.739258
7029.527537	0.090183	0.276447	3149.461182
7029.528474	0.090289	0.276447	3234.062256
7029.529375	0.090157	0.276447	3315.294189
7029.530266	0.090300	0.276447	3395.751709
7030.534675	1.124125	0.261945	573.303650
7030.535599	1.544605	0.261945	2000.518311
7030.536510	0.670177	0.261945	2611.049561
7030.537403	0.093970	0.261945	2694.964600
7030.538342	0.090194	0.261945	2779.656738
7030.539250	0.090216	0.261945	2861.572998
7030.540175	0.090300	0.261945	2945.100830
7030.541064	0.090289	0.261945	3025.367920
7030.542010	0.090256	0.261945	3110.750488
7030.542906	0.090267	0.261945	3191.630127
7030.543819	0.090304	0.261945	3274.077637
7030.544718	0.090249	0.261945	3355.211426
7030.545674	0.090348	0.261945	3441.583984
7031.559651	1.080326	0.271709	483.986023
7031.560550	1.541429	0.271709	1869.730957
7031.561449	0.817350	0.271709	2604.528564
7031.562415	0.095112	0.271709	2696.406982
7031.563310	0.090190	0.271709	2777.127441
7031.564216	0.090293	0.271709	2858.932861
7031.565116	0.090271	0.271709	2940.176758
7031.566065	0.090260	0.271709	3025.833496
7031.566979	0.090201	0.271709	3108.277588
7031.567869	0.090267	0.271709	3188.615479
7031.568809	0.090227	0.271709	3273.428955
7031.569727	0.090256	0.271709	3356.284180
7031.570647	0.090245	0.271709	3439.309814
7032.565192	1.068582	0.264462	466.970154
7032.566173	1.544290	0.264462	1981.918213
7032.567100	0.674268	0.264462	2606.964355
7032.567991	0.094003	0.264462	2690.720703
7032.568907	0.090066	0.264462	2773.221191
7032.569848	0.090143	0.264462	2858.045654
7032.570762	0.090139	0.264462	2940.432861
7032.571651	0.090201	0.264462	3020.621826
7032.572586	0.090190	0.264462	3104.949951
7032.573511	0.090212	0.264462	3188.396484
7032.574433	0.090201	0.264462	3271.562256
7032.575329	0.090183	0.264462	3352.366211
7032.576280	0.090161	0.264462	3438.109375
7033.600484	1.077660	0.267890	495.723541
7033.601392	1.543477	0.267890	1897.200195
7033.602291	0.793440	0.267890	2610.502686
7033.603249	0.095460	0.267890	2701.953613
7033.604186	0.090183	0.267890	2786.455078
7033.605088	0.090344	0.267890	2867.945557
7033.606015	0.090216	0.267890	2951.575928
7033.606946	0.090187	0.267890	3035.539795
7033.607863	0.090231	0.267890	3118.281250
7033.608760	0.090165	0.267890	3199.159180
7033.609692	0.090194	0.267890	3283.219971
7033.610614	0.090209	0.267890	3366.392334
7033.611527	0.090216	0.267890	3448.759521
7034.598352	1.067450	0.276322	463.273254
7034.599287	1.541594	0.276322	1904.663818
7034.600230	0.737245	0.276322	2599.885742
7034.601142	0.094468	0.276322	2686.040283
7034.602042	0.090179	0.276322	2767.201660
7034.602980	0.090176	0.276322	2851.786621
7034.603909	0.090249	0.276322	2935.627930
7034.604828	0.090220	0.276322	3018.539795
7034.605733	0.090187	0.276322	3100.158936
7034.606666	0.090201	0.276322	3184.316895
7034.607603	0.090183	0.276322	3268.818359
7034.608527	0.090267	0.276322	3352.225342
7034.609415	0.090209	0.276322	3432.330811
7035.641295	1.077982	0.255068	477.546112
7035.642204	1.542861	0.255068	1880.007080
7035.643108	0.811018	0.255068	2613.167480
7035.644052	0.095457	0.255068	2703.278564
7035.644970	0.090220	0.255068	2786.100342
7035.645863	0.090176	0.255068	2866.627197
7035.646775	0.090267	0.255068	2948.950928
7035.647695	0.090333	0.255068	3032.057617
7035.648607	0.090194	0.255068	3114.314697
7035.649509	0.090275	0.255068	3195.742432
7035.650438	0.090260	0.255068	3279.593994
7035.651348	0.090216	0.255068	3361.690674
7035.652256	0.090234	0.255068	3443.623535
7036.635110	1.099768	0.275782	506.993073
7036.636006	1.542946	0.275782	1889.472168
7036.636978	0.724032	0.275782	2593.231201
7036.637877	0.094548	0.275782	2678.230225
7036.638775	0.090172	0.275782	2759.204834
7036.639666	0.090205	0.275782	2839.577637
7036.640601	0.090260	0.275782	2923.970703
7036.641502	0.090179	0.275782	3005.222412
7036.642406	0.090157	0.275782	3086.724854
7036.643293	0.090260	0.275782	3166.785400
7036.644236	0.090234	0.275782	3251.876465
7036.645143	0.090183	0.275782	3333.672607
7036.646048	0.090205	0.275782	3415.308105
7037.680083	1.071141	0.238633	470.231049
7037.680984	1.542030	0.238633	1859.600098
7037.681955	0.721582	0.238633	2560.256348
7037.682878	0.094098	0.238633	2647.108643
7037.683769	0.090146	0.238633	2727.429199
7037.684699	0.090216	0.238633	2811.330078
7037.685629	0.090154	0.238633	2895.173096
7037.686541	0.090187	0.238633	2977.423340
7037.687434	0.090187	0.238633	3057.960205
7037.688375	0.090187	0.238633	3142.825928
7037.689280	0.090183	0.238633	3224.441650
7037.690206	0.090271	0.238633	3308.032715
7037.691097	0.090179	0.238633	3388.382568
7038.673872	1.074869	0.262783	472.942535
7038.674854	1.543597	0.262783	1988.755249
7038.675768	0.684697	0.262783	2614.568604
7038.676693	0.093633	0.262783	2701.178955
7038.677582	0.090168	0.262783	2781.338623
7038.678531	0.090238	0.262783	2866.974609
7038.679456	0.090183	0.262783	2950.394043
7038.680354	0.090275	0.262783	3031.460693
7038.681275	0.090260	0.262783	3114.590088
7038.682186	0.090201	0.262783	3196.763672
7038.683109	0.090275	0.262783	3280.087158
7038.684000	0.090278	0.262783	3360.525146
7038.684954	0.090278	0.262783	3446.650635
7039.715818	1.095168	0.230278	511.443665
7039.716743	1.544436	0.230278	1940.046875
7039.717645	0.749264	0.230278	2615.882812
7039.718564	0.095457	0.230278	2703.607422
7039.719510	0.090161	0.230278	2788.899902
7039.720446	0.090168	0.230278	2873.297607
7039.721348	0.090201	0.230278	2954.659180
7039.722271	0.090121	0.230278	3037.840820
7039.723209	0.090183	0.230278	3122.432617
7039.724116	0.090201	0.230278	3204.245361
7039.725014	0.090267	0.230278	3285.305420
7039.725947	0.090256	0.230278	3369.514648
7039.726893	0.090187	0.230278	3454.831299
7040.711118	1.068164	0.258134	468.924042
7040.712012	1.540719	0.258134	1846.326782
7040.712994	0.713683	0.258134	2547.163330
7040.713919	0.094087	0.258134	2634.193848
7040.714810	0.090238	0.258134	2714.595947
7040.715729	0.090179	0.258134	2797.470947
7040.716658	0.090304	0.258134	2881.363281
7040.717574	0.090275	0.258134	2964.054932
7040.718463	0.090227	0.258134	3044.266846
7040.719402	0.090264	0.258134	3129.024414
7040.720343	0.090231	0.258134	3213.931396
7040.721245	0.090253	0.258134	3295.339355
7040.722166	0.090146	0.258134	3378.364258
7041.751500	1.062180	0.229170	463.110565
7041.752398	1.540565	0.229170	1846.538086
7041.753395	0.699430	0.229170	2543.869629
7041.754290	0.094603	0.229170	2628.539551
7041.755193	0.090234	0.229170	2710.021240
7041.756084	0.090297	0.229170	2790.475586
7041.757019	0.090315	0.229170	2874.920166
7041.757920	0.090242	0.229170	2956.228027
7041.758813	0.090293	0.229170	3036.859619
7041.759742	0.090311	0.229170	3120.758789
7041.760653	0.090297	0.229170	3203.019043
7041.761553	0.090212	0.229170	3284.210205
7041.762445	0.090282	0.229170	3364.741699
7042.747859	1.076748	0.249054	479.152863
7042.748764	1.541646	0.249054	1874.342041
7042.749667	0.805781	0.249054	2601.962402
7042.750624	0.095255	0.249054	2693.121582
7042.751523	0.090125	0.249054	2774.143555
7042.752416	0.090223	0.249054	2854.713135
7042.753362	0.090238	0.249054	2940.078369
7042.754265	0.090242	0.249054	3021.566650
7042.755158	0.090201	0.249054	3102.116455
7042.756052	0.090212	0.249054	3182.766357
7042.756987	0.090326	0.249054	3267.221191
7042.757901	0.090223	0.249054	3349.685303
7042.758799	0.090190	0.249054	3430.676270
7043.785688	1.079498	0.235765	486.853729
7043.786580	1.542129	0.235765	1862.432739
7043.787555	0.735081	0.235765	2579.136230
7043.788465	0.094515	0.235765	2665.145264
7043.789378	0.090150	0.235765	2747.452393
7043.790276	0.090194	0.235765	2828.446777
7043.791231	0.090198	0.235765	2914.585693
7043.792147	0.090231	0.235765	2997.237061
7043.793081	0.090256	0.235765	3081.536377
7043.793985	0.090205	0.235765	3163.081787
7043.794925	0.090168	0.235765	3247.840088
7043.795843	0.090253	0.235765	3330.692139
7043.796729	0.090256	0.235765	3410.659180
7044.783062	1.075540	0.248200	480.766205
7044.783958	1.541616	0.248200	1862.054321
7044.784933	0.732206	0.248200	2575.955078
7044.785867	0.094087	0.248200	2663.832275
7044.786765	0.090212	0.248200	2744.843018
7044.787684	0.090267	0.248200	2827.798584
7044.788624	0.090231	0.248200	2912.615479
7044.789542	0.090234	0.248200	2995.450684
7044.790439	0.090231	0.248200	3076.387695
7044.791387	0.090245	0.248200	3161.940186
7044.792325	0.090297	0.248200	3246.638428
7044.793239	0.090308	0.248200	3329.179687
7044.794130	0.090201	0.248200	3409.549072
7045.821389	1.071566	0.245396	476.846924
7045.822338	1.543008	0.245396	1941.161255
7045.823298	0.654144	0.245396	2569.139648
7045.824228	0.092985	0.245396	2655.615234
7045.825125	0.090135	0.245396	2736.466797
7045.826082	0.090242	0.245396	2822.828125
7045.827019	0.090275	0.245396	2907.415527
7045.827912	0.090315	0.245396	2988.066650
7045.828826	0.090344	0.245396	3070.641357
7045.829764	0.090271	0.245396	3155.315430
7045.830684	0.090359	0.245396	3238.445557
7045.831573	0.090209	0.245396	3318.641113
7045.832518	0.090209	0.245396	3403.888428
7046.818818	1.137920	0.250689	563.270386
7046.819769	1.544315	0.250689	2031.914185
7046.820700	0.629528	0.250689	2618.004395
7046.821592	0.093296	0.250689	2701.224365
7046.822533	0.090172	0.250689	2786.076416
7046.823475	0.090216	0.250689	2871.060059
7046.824377	0.090315	0.250689	2952.524170
7046.825296	0.090172	0.250689	3035.392334
7046.826235	0.090253	0.250689	3120.139648
7046.827168	0.090242	0.250689	3204.335205
7046.828071	0.090282	0.250689	3285.859863
7046.829009	0.090278	0.250689	3370.541016
7046.829905	0.090315	0.250689	3451.463135
7047.856141	1.099014	0.256692	553.902893
7047.857053	1.544817	0.256692	1962.775879
7047.857971	0.688674	0.256692	2594.979004
7047.858862	0.094427	0.256692	2679.114014
7047.859789	0.090238	0.256692	2762.764648
7047.860698	0.090264	0.256692	2844.814209
7047.861600	0.090161	0.256692	2926.139648
7047.862486	0.090282	0.256692	3006.129395
7047.863434	0.090304	0.256692	3091.737549
7047.864334	0.090231	0.256692	3172.945312
7047.865227	0.090231	0.256692	3253.521240
7047.866166	0.090326	0.256692	3338.337402
7047.867065	0.090190	0.256692	3419.418701
7048.853516	1.134624	0.255644	557.100403
7048.854426	1.544513	0.255644	1962.607178
7048.855357	0.699221	0.255644	2613.582031
7048.856246	0.094545	0.255644	2697.632324
7048.857199	0.090139	0.255644	2783.534912
7048.858101	0.090187	0.255644	2864.883301
7048.858991	0.090176	0.255644	2945.139648
7048.859927	0.090256	0.255644	3029.619629
7048.860835	0.090260	0.255644	3111.575684
7048.861759	0.090209	0.255644	3194.928467
7048.862649	0.090234	0.255644	3275.237061
7048.863605	0.090271	0.255644	3361.536133
7048.864511	0.090242	0.255644	3443.295166
7049.890260	1.089283	0.258098	486.909698
7049.891244	1.545670	0.258098	2007.849121
7049.892179	0.636039	0.258098	2602.545410
7049.893068	0.093600	0.258098	2685.755615
7049.893998	0.090150	0.258098	2769.595215
7049.894935	0.090190	0.258098	2854.103760
7049.895858	0.090264	0.258098	2937.417236
7049.896748	0.090223	0.258098	3017.716064
7049.897683	0.090260	0.258098	3102.109131
7049.898618	0.090238	0.258098	3186.481689
7049.899537	0.090326	0.258098	3269.491211
7049.900431	0.090201	0.258098	3350.131348
7049.901381	0.090234	0.258098	3435.854004
7050.892755	1.076982	0.250754	477.103241
7050.893654	1.541975	0.250754	1863.338867
7050.894625	0.731876	0.250754	2573.990723
7050.895542	0.094354	0.250754	2660.513672
7050.896439	0.090231	0.250754	2741.450684
7050.897354	0.090341	0.250754	2824.112305
7050.898299	0.090245	0.250754	2909.394043
7050.899216	0.090311	0.250754	2992.209473
7050.900105	0.090271	0.250754	3072.460449
7050.901050	0.090139	0.250754	3157.641846
7050.901964	0.090238	0.250754	3240.119385
7050.902881	0.090234	0.250754	3322.864258
7050.903772	0.090282	0.250754	3403.305420
7051.922908	1.086526	0.265598	490.023193
7051.923806	1.542594	0.265598	1875.272583
7051.924767	0.723633	0.265598	2570.683594
7051.925711	0.093973	0.265598	2659.394531
7051.926630	0.090231	0.265598	2742.316650
7051.927520	0.090227	0.265598	2822.618652
7051.928470	0.090227	0.265598	2908.334473
7051.929398	0.090135	0.265598	2991.980225
7051.930301	0.090150	0.265598	3073.385742
7051.931224	0.090176	0.265598	3156.617920
7051.932162	0.090168	0.265598	3241.196045
7051.933077	0.090216	0.265598	3323.743652
7051.933968	0.090194	0.265598	3404.106689
7052.933091	1.092385	0.246705	492.665771
7052.933995	1.542795	0.246705	1887.352783
7052.934894	0.797758	0.246705	2604.536865
7052.935842	0.095695	0.246705	2695.255371
7052.936750	0.090125	0.246705	2777.088379
7052.937641	0.090223	0.246705	2857.477539
7052.938570	0.090355	0.246705	2941.417480
7052.939474	0.090322	0.246705	3023.068848
7052.940379	0.090271	0.246705	3104.764160
7052.941269	0.090245	0.246705	3185.082520
7052.942227	0.090330	0.246705	3271.618164
7052.943124	0.090330	0.246705	3352.643799
7052.944027	0.090231	0.246705	3434.122070
7053.954508	1.070599	0.262613	468.922516
7053.955455	1.541221	0.262613	1928.458496
7053.956392	0.711647	0.262613	2595.271484
7053.957289	0.094823	0.262613	2680.327637
7053.958179	0.090183	0.262613	2760.590576
7053.959115	0.090304	0.262613	2845.114990
7053.960027	0.090304	0.262613	2927.472168
7053.960925	0.090216	0.262613	3008.486084
7053.961813	0.090242	0.262613	3088.620605
7053.962760	0.090264	0.262613	3174.100342
7053.963667	0.090227	0.262613	3255.936279
7053.964561	0.090289	0.262613	3336.655029
7053.965492	0.090198	0.262613	3420.629150
7054.974412	1.070530	0.246790	471.033112
7054.975314	1.541334	0.246790	1861.316528
7054.976289	0.715162	0.246790	2558.599854
7054.977199	0.094453	0.246790	2644.552246
7054.978131	0.090179	0.246790	2728.599609
7054.979035	0.090212	0.246790	2810.151611
7054.979983	0.090238	0.246790	2895.697266
7054.980885	0.090242	0.246790	2977.095215
7054.981773	0.090245	0.246790	3057.233154
7054.982722	0.090150	0.246790	3142.785645
7054.983627	0.090201	0.246790	3224.417969
7054.984537	0.090227	0.246790	3306.524658
7054.985433	0.090168	0.246790	3387.315674
7055.984596	1.076140	0.271794	475.653900
7055.985496	1.542327	0.271794	1863.747925
7055.986464	0.738010	0.271794	2578.141846
7055.987380	0.094651	0.271794	2664.842041
7055.988306	0.090190	0.271794	2748.358398
7055.989195	0.090117	0.271794	2828.472656
7055.990147	0.090249	0.271794	2914.389648
7055.991066	0.090179	0.271794	2997.264648
7055.991991	0.090238	0.271794	3080.734863
7055.992883	0.090176	0.271794	3161.171631
7055.993822	0.090227	0.271794	3245.894775
7055.994752	0.090227	0.271794	3329.805908
7055.995651	0.090139	0.271794	3410.841064
7057.015755	1.062220	0.253235	462.065887
7057.016653	1.541371	0.253235	1846.216797
7057.017626	0.748726	0.253235	2574.726807
7057.018549	0.094731	0.253235	2662.163818
7057.019443	0.090179	0.253235	2742.784180
7057.020366	0.090161	0.253235	2826.002930
7057.021304	0.090220	0.253235	2910.628906
7057.022225	0.090117	0.253235	2993.626953
7057.023129	0.090183	0.253235	3075.152588
7057.024045	0.090201	0.253235	3157.777100
7057.024982	0.090190	0.253235	3242.285645
7057.025899	0.090172	0.253235	3324.973389
7057.026796	0.090293	0.253235	3405.966064
7058.016727	1.074961	0.269115	478.357574
7058.017620	1.541301	0.269115	1854.739502
7058.018598	0.732330	0.269115	2570.958496
7058.019503	0.094969	0.269115	2656.905762
7058.020398	0.090176	0.269115	2737.613037
7058.021333	0.090271	0.269115	2822.016357
7058.022237	0.090212	0.269115	2903.568359
7058.023135	0.090168	0.269115	2984.539551
7058.024023	0.090253	0.269115	3064.683838
7058.024970	0.090286	0.269115	3150.184326
7058.025868	0.090183	0.269115	3231.168701
7058.026766	0.090286	0.269115	3312.245117
7058.027651	0.090216	0.269115	3392.086426
7059.056097	1.092748	0.251213	499.385742
7059.056995	1.542422	0.251213	1884.480591
7059.057963	0.748250	0.251213	2608.786133
7059.058859	0.094611	0.251213	2693.557129
7059.059758	0.090073	0.251213	2774.532959
7059.060651	0.090194	0.251213	2855.076172
7059.061576	0.090157	0.251213	2938.471924
7059.062507	0.090242	0.251213	3022.486816
7059.063407	0.090220	0.251213	3103.684570
7059.064297	0.090201	0.251213	3183.963867
7059.065243	0.090238	0.251213	3269.329102
7059.066145	0.090223	0.251213	3350.710693
7059.067042	0.090146	0.251213	3431.572021
7060.051952	1.115757	0.254545	519.942627
7060.052876	1.543689	0.254545	1946.311279
7060.053798	0.721494	0.254545	2611.528809
7060.054694	0.095266	0.254545	2696.887207
7060.055639	0.090172	0.254545	2782.099854
7060.056542	0.090223	0.254545	2863.571533
7060.057429	0.090194	0.254545	2943.573730
7060.058379	0.090223	0.254545	3029.285889
7060.059282	0.090179	0.254545	3110.718018
7060.060178	0.090157	0.254545	3191.499023
7060.061066	0.090238	0.254545	3271.630371
7060.061992	0.090223	0.254545	3355.177246
7060.062905	0.090242	0.254545	3437.567871
7061.090287	1.089730	0.257916	513.262939
7061.091196	1.543583	0.257916	1916.379761
7061.092098	0.765015	0.257916	2606.422852
7061.093056	0.094438	0.257916	2696.895020
7061.093990	0.090168	0.257916	2781.112305
7061.094908	0.090190	0.257916	2863.907227
7061.095796	0.090161	0.257916	2943.970215
7061.096741	0.090234	0.257916	3029.241699
7061.097682	0.090190	0.257916	3114.110840
7061.098572	0.090179	0.257916	3194.370605
7061.099491	0.090194	0.257916	3277.259033
7061.100418	0.090223	0.257916	3360.895996
7061.101351	0.090212	0.257916	3445.064209
7062.094315	1.088295	0.233231	500.615540
7062.095223	1.543063	0.233231	1901.716553
7062.096123	0.790111	0.233231	2612.816650
7062.097088	0.095262	0.233231	2704.744873
7062.098021	0.090168	0.233231	2788.872070
7062.098911	0.090242	0.233231	2869.187256
7062.099831	0.090172	0.233231	2952.145508
7062.100768	0.090205	0.233231	3036.667725
7062.101705	0.090264	0.233231	3121.244873
7062.102605	0.090209	0.233231	3202.432617
7062.103528	0.090201	0.233231	3285.688477
7062.104457	0.090172	0.233231	3369.458496
7062.105385	0.090187	0.233231	3453.151855
7063.120331	1.070226	0.267906	470.899353
7063.121307	1.544722	0.267906	1978.547852
7063.122225	0.697727	0.267906	2619.061279
7063.123119	0.094178	0.267906	2703.256836
7063.124037	0.090168	0.267906	2786.031494
7063.124956	0.090293	0.267906	2869.010742
7063.125862	0.090165	0.267906	2950.699951
7063.126763	0.090260	0.267906	3032.024170
7063.127692	0.090209	0.267906	3115.828125
7063.128587	0.090190	0.267906	3196.548584
7063.129484	0.090190	0.267906	3277.449463
7063.130378	0.090209	0.267906	3358.096191
7063.131312	0.090286	0.267906	3442.423096
7064.135180	1.140648	0.240550	573.746094
7064.136095	1.545139	0.240550	1987.548340
7064.137032	0.655818	0.240550	2602.049805
7064.137920	0.093809	0.240550	2685.351807
7064.138878	0.090190	0.240550	2771.754150
7064.139771	0.090231	0.240550	2852.330078
7064.140664	0.090300	0.240550	2932.968262
7064.141608	0.090355	0.240550	3018.263672
7064.142520	0.090282	0.240550	3100.600830
7064.143425	0.090227	0.240550	3182.256348
7064.144318	0.090223	0.240550	3262.825928
7064.145250	0.090172	0.240550	3346.866455
7064.146166	0.090253	0.240550	3429.537842
7065.148934	1.103580	0.277099	552.893738
7065.149876	1.544538	0.277099	2007.849121
7065.150795	0.645780	0.277099	2601.321045
7065.151689	0.093633	0.277099	2685.028809
7065.152633	0.090165	0.277099	2770.144287
7065.153578	0.090256	0.277099	2855.436523
7065.154475	0.090278	0.277099	2936.416260
7065.155392	0.090242	0.277099	3019.167969
7065.156316	0.090187	0.277099	3102.500488
7065.157246	0.090209	0.277099	3186.394531
7065.158134	0.090205	0.277099	3266.496582
7065.159065	0.090209	0.277099	3350.480957
7065.160005	0.090209	0.277099	3435.277100
7066.175433	1.065798	0.246923	466.819702
7066.176381	1.541484	0.246923	1928.146851
7066.177335	0.688934	0.246923	2585.390137
7066.178258	0.093571	0.246923	2671.755859
7066.179148	0.090146	0.246923	2751.986328
7066.180074	0.090253	0.246923	2835.560303
7066.181002	0.090234	0.246923	2919.297852
7066.181918	0.090223	0.246923	3001.942383
7066.182811	0.090264	0.246923	3082.547852
7066.183769	0.090216	0.246923	3168.974854
7066.184710	0.090256	0.246923	3253.906006
7066.185607	0.090238	0.246923	3334.849609
7066.186525	0.090238	0.246923	3417.688232
7067.179467	1.063557	0.288253	462.647369
7067.180405	1.540140	0.288253	1907.299072
7067.181333	0.746810	0.288253	2600.338867
7067.182228	0.095918	0.288253	2686.185547
7067.183124	0.090128	0.288253	2766.940430
7067.184053	0.090293	0.288253	2850.822510
7067.184953	0.090333	0.288253	2932.122559
7067.185861	0.090322	0.288253	3014.135254
7067.186749	0.090220	0.288253	3094.250488
7067.187692	0.090359	0.288253	3179.458984
7067.188595	0.090201	0.288253	3260.910889
7067.189488	0.090249	0.288253	3341.503174
7067.190428	0.090260	0.288253	3426.347656
7068.215763	1.077799	0.239152	479.620605
7068.216663	1.541689	0.239152	1867.141113
7068.217562	0.812728	0.239152	2597.783691
7068.218531	0.094937	0.239152	2689.777100
7068.219431	0.090176	0.239152	2770.935303
7068.220321	0.090132	0.239152	2851.152588
7068.221249	0.090271	0.239152	2934.924072
7068.222163	0.090183	0.239152	3017.351318
7068.223085	0.090234	0.239152	3100.547363
7068.223970	0.090205	0.239152	3180.378906
7068.224920	0.090194	0.239152	3266.063232
7068.225823	0.090139	0.239152	3347.458984
7068.226742	0.090183	0.239152	3430.337158
7069.213172	1.095322	0.274823	526.849976
7069.214068	1.543850	0.274823	1910.139771
7069.215029	0.700349	0.274823	2583.175293
7069.215935	0.093834	0.274823	2668.189209
7069.216849	0.090092	0.274823	2750.532959
7069.217747	0.090253	0.274823	2831.579834
7069.218705	0.090212	0.274823	2918.003418
7069.219616	0.090176	0.274823	3000.153564
7069.220533	0.090223	0.274823	3082.888428
7069.221427	0.090168	0.274823	3163.499023
7069.222378	0.090245	0.274823	3249.322266
7069.223290	0.090139	0.274823	3331.529297
7069.224203	0.090187	0.274823	3413.869873
7070.255049	1.067648	0.225404	465.494385
7070.256001	1.543872	0.225404	1935.260498
7070.256941	0.697511	0.225404	2590.920898
7070.257865	0.093911	0.225404	2677.694824
7070.258753	0.090088	0.225404	2757.692871
7070.259698	0.090157	0.225404	2842.891602
7070.260622	0.090106	0.225404	2926.149658
7070.261549	0.090161	0.225404	3009.729004
7070.262446	0.090165	0.225404	3090.606934
7070.263380	0.090161	0.225404	3174.817383
7070.264316	0.090231	0.225404	3259.273437
7070.265221	0.090176	0.225404	3340.882568
7070.266137	0.090146	0.225404	3423.456787
7071.250403	1.101519	0.255862	504.495483
7071.251326	1.543568	0.255862	1929.208862
7071.252249	0.742277	0.255862	2614.330078
7071.253142	0.095870	0.255862	2699.942383
7071.254081	0.090227	0.255862	2784.665527
7071.254987	0.090179	0.255862	2866.368164
7071.255875	0.090300	0.255862	2946.554932
7071.256816	0.090278	0.255862	3031.506836
7071.257721	0.090348	0.255862	3113.271729
7071.258620	0.090194	0.255862	3194.356201
7071.259513	0.090242	0.255862	3274.942139
7071.260469	0.090260	0.255862	3361.230713
7071.261367	0.090249	0.255862	3442.274414
7072.290251	1.069406	0.223522	471.607849
7072.291212	1.544238	0.223522	1955.620850
7072.292141	0.686349	0.223522	2593.239014
7072.293062	0.093560	0.223522	2679.407471
7072.293962	0.090212	0.223522	2760.598633
7072.294915	0.090135	0.223522	2846.497803
7072.295814	0.090154	0.223522	2927.546143
7072.296704	0.090227	0.223522	3007.848145
7072.297650	0.090260	0.223522	3093.234131
7072.298553	0.090146	0.223522	3174.636475
7072.299467	0.090242	0.223522	3257.117432
7072.300364	0.090245	0.223522	3338.067627
7072.301306	0.090212	0.223522	3423.047607
7073.289197	1.117507	0.237851	526.345947
7073.290104	1.543348	0.237851	1926.162964
7073.291072	0.675487	0.237851	2580.034424
7073.291975	0.094043	0.237851	2664.955322
7073.292896	0.090227	0.237851	2748.054443
7073.293784	0.090278	0.237851	2828.221680
7073.294739	0.090106	0.237851	2914.273193
7073.295634	0.090190	0.237851	2994.993652
7073.296553	0.090286	0.237851	3077.966064
7073.297448	0.090198	0.237851	3158.693115
7073.298389	0.090176	0.237851	3243.548584
7073.299311	0.090282	0.237851	3326.788574
7073.300207	0.090249	0.237851	3407.651611
7074.324978	1.119294	0.237384	532.784119
7074.325920	1.544813	0.237384	1987.998291
7074.326850	0.668518	0.237384	2609.720215
7074.327741	0.094036	0.237384	2693.505859
7074.328697	0.090143	0.237384	2779.682373
7074.329640	0.090183	0.237384	2864.725098
7074.330537	0.090223	0.237384	2945.655518
7074.331462	0.090223	0.237384	3029.112061
7074.332397	0.090183	0.237384	3113.433350
7074.333320	0.090165	0.237384	3196.655518
7074.334213	0.090275	0.237384	3277.270752
7074.335128	0.090150	0.237384	3359.758057
7074.336070	0.090125	0.237384	3444.655273
7075.323851	1.068102	0.236784	467.828583
7075.324744	1.541902	0.236784	1844.746948
7075.325737	0.720809	0.236784	2560.510742
7075.326677	0.094098	0.236784	2648.962891
7075.327575	0.090282	0.236784	2730.036133
7075.328502	0.090245	0.236784	2813.693604
7075.329437	0.090245	0.236784	2898.072998
7075.330347	0.090216	0.236784	2980.169678
7075.331237	0.090256	0.236784	3060.497803
7075.332167	0.090209	0.236784	3144.391846
7075.333103	0.090282	0.236784	3228.895752
7075.334004	0.090190	0.236784	3310.157227
7075.334923	0.090165	0.236784	3393.018555
7076.358604	1.069574	0.247950	467.403778
7076.359546	1.542085	0.247950	1920.047852
7076.360478	0.731147	0.247950	2601.477295
7076.361380	0.095079	0.247950	2687.238770
7076.362273	0.090154	0.247950	2767.746094
7076.363245	0.090264	0.247950	2855.482422
7076.364147	0.090275	0.247950	2936.910156
7076.365049	0.090267	0.247950	3018.331299
7076.365939	0.090297	0.247950	3098.695312
7076.366881	0.090286	0.247950	3183.744385
7076.367781	0.090179	0.247950	3264.905762
7076.368683	0.090198	0.247950	3346.264160
7076.369622	0.090271	0.247950	3431.028564
7077.358540	1.065732	0.245465	466.790833
7077.359434	1.540851	0.245465	1844.311523
7077.360407	0.740962	0.245465	2565.267578
7077.361305	0.095599	0.245465	2651.115723
7077.362197	0.090110	0.245465	2731.493652
7077.363126	0.090179	0.245465	2815.270264
7077.364031	0.090223	0.245465	2896.922363
7077.364938	0.090168	0.245465	2978.705078
7077.365829	0.090201	0.245465	3059.074463
7077.366760	0.090245	0.245465	3143.092773
7077.367669	0.090022	0.245465	3224.922852
7077.368567	0.090084	0.245465	3305.818604
7077.369458	0.090183	0.245465	3386.171875
7078.393283	1.065161	0.251632	462.279907
7078.394247	1.543656	0.251632	1950.364258
7078.395170	0.706457	0.251632	2602.424561
7078.396094	0.093787	0.251632	2689.083496
7078.396984	0.090062	0.251632	2769.239014
7078.397938	0.090146	0.251632	2855.238770
7078.398860	0.090128	0.251632	2938.336914
7078.399755	0.090249	0.251632	3019.109863
7078.400699	0.090165	0.251632	3104.225342
7078.401616	0.090143	0.251632	3186.886230
7078.402539	0.090282	0.251632	3270.216553
7078.403430	0.090190	0.251632	3350.576172
7078.404364	0.090231	0.251632	3434.851562
7079.391738	1.119287	0.255338	528.303528
7079.392649	1.544304	0.255338	1935.164795
7079.393546	0.766564	0.255338	2622.772461
7079.394463	0.095409	0.255338	2710.262451
7079.395411	0.090125	0.255338	2795.700439
7079.396323	0.090201	0.255338	2877.964111
7079.397215	0.090125	0.255338	2958.355225
7079.398158	0.090198	0.255338	3043.411621
7079.399102	0.090190	0.255338	3128.551270
7079.400020	0.090183	0.255338	3211.339355
7079.400906	0.090209	0.255338	3291.264404
7079.401851	0.090220	0.255338	3376.521973
7079.402769	0.090161	0.255338	3459.289795
7080.429040	1.126007	0.260474	535.979370
7080.429979	1.546132	0.260474	1987.796997
7080.430882	0.712540	0.260474	2631.220947
7080.431815	0.093842	0.260474	2718.775146
7080.432765	0.090143	0.260474	2804.410889
7080.433693	0.090238	0.260474	2888.151855
7080.434590	0.090253	0.260474	2969.108398
7080.435522	0.090234	0.260474	3053.206787
7080.436461	0.090176	0.260474	3137.881836
7080.437384	0.090242	0.260474	3221.174805
7080.438271	0.090223	0.260474	3301.202881
7080.439204	0.090227	0.260474	3385.384766
7080.440137	0.090179	0.260474	3469.522217
7081.426388	1.081567	0.265264	474.808105
7081.427305	1.543484	0.265264	1890.182739
7081.428209	0.796527	0.265264	2610.243164
7081.429151	0.096815	0.265264	2701.443115
7081.430057	0.090271	0.265264	2783.228516
7081.430958	0.090253	0.265264	2864.546143
7081.431845	0.090249	0.265264	2944.596924
7081.432795	0.090176	0.265264	3030.263916
7081.433705	0.090282	0.265264	3112.420410
7081.434596	0.090253	0.265264	3192.835449
7081.435505	0.090330	0.265264	3274.945068
7081.436426	0.090242	0.265264	3358.057617
7081.437337	0.090286	0.265264	3440.307861
7082.465229	1.070226	0.258021	468.758911
7082.466194	1.543509	0.258021	1958.245605
7082.467116	0.712452	0.258021	2615.126709
7082.468015	0.094713	0.258021	2700.273926
7082.468901	0.090114	0.258021	2780.114502
7082.469851	0.090242	0.258021	2865.843994
7082.470765	0.090238	0.258021	2948.321533
7082.471666	0.090190	0.258021	3029.583008
7082.472601	0.090260	0.258021	3113.976074
7082.473519	0.090245	0.258021	3196.821289
7082.474430	0.090143	0.258021	3278.941406
7082.475323	0.090275	0.258021	3359.556641
7082.476260	0.090311	0.258021	3444.178223
7083.462091	1.065930	0.284535	462.613678
7083.463043	1.541788	0.284535	1930.396118
7083.463966	0.735809	0.284535	2609.548096
7083.464884	0.094435	0.284535	2696.239258
7083.465786	0.090176	0.284535	2777.577881
7083.466745	0.090275	0.284535	2864.151367
7083.467657	0.090209	0.284535	2946.421631
7083.468578	0.090231	0.284535	3029.524170
7083.469467	0.090264	0.284535	3109.768555
7083.470411	0.090278	0.284535	3194.991211
7083.471310	0.090253	0.284535	3276.128418
7083.472222	0.090311	0.284535	3358.492187
7083.473116	0.090256	0.284535	3439.181396
7084.500988	1.127871	0.249010	547.017456
7084.501925	1.545344	0.249010	1995.005005
7084.502867	0.653522	0.249010	2610.622559
7084.503755	0.093571	0.249010	2693.713135
7084.504695	0.090143	0.249010	2778.447266
7084.505633	0.090121	0.249010	2862.980713
7084.506534	0.090201	0.249010	2944.252197
7084.507461	0.090198	0.249010	3027.865479
7084.508403	0.090234	0.249010	3112.866211
7084.509335	0.090168	0.249010	3196.903320
7084.510237	0.090201	0.249010	3278.264893
7084.511151	0.090172	0.249010	3360.682129
7084.512089	0.090242	0.249010	3445.328857
7085.501935	1.090510	0.279947	507.087280
7085.502855	1.544213	0.279947	1927.762939
7085.503752	0.764561	0.279947	2613.573730
7085.504681	0.095885	0.279947	2702.650879
7085.505624	0.090139	0.279947	2787.652100
7085.506537	0.090190	0.279947	2869.995850
7085.507429	0.090267	0.279947	2950.514404
7085.508386	0.090216	0.279947	3036.851074
7085.509316	0.090223	0.279947	3120.758789
7085.510214	0.090278	0.279947	3201.828613
7085.511122	0.090264	0.279947	3283.788086
7085.512048	0.090253	0.279947	3367.362061
7085.512971	0.090278	0.279947	3450.688965
7086.533071	1.081150	0.245666	477.868286
7086.533978	1.542766	0.245666	1877.157104
7086.534877	0.803331	0.245666	2599.352051
7086.535846	0.094761	0.245666	2691.175293
7086.536752	0.090198	0.245666	2772.894531
7086.537643	0.090242	0.245666	2853.299805
7086.538597	0.090293	0.245666	2939.439209
7086.539501	0.090297	0.245666	3021.067383
7086.540390	0.090172	0.245666	3101.230469
7086.541278	0.090201	0.245666	3181.329346
7086.542211	0.090264	0.245666	3265.545410
7086.543113	0.090238	0.245666	3346.940186
7086.544023	0.090227	0.245666	3429.046875
7087.540680	1.066351	0.276644	467.061859
7087.541578	1.541770	0.276644	1851.571411
7087.542541	0.744042	0.276644	2568.083496
7087.543467	0.094677	0.276644	2655.753906
7087.544369	0.090117	0.276644	2737.039551
7087.545265	0.090216	0.276644	2817.873047
7087.546210	0.090212	0.276644	2903.123779
7087.547113	0.090190	0.276644	2984.565674
7087.548007	0.090249	0.276644	3065.248291
7087.548955	0.090227	0.276644	3150.783447
7087.549853	0.090264	0.276644	3231.840332
7087.550748	0.090209	0.276644	3312.577148
7087.551637	0.090172	0.276644	3392.740234
7088.561125	1.079213	0.249493	491.041748
7088.562021	1.542729	0.249493	1873.327393
7088.562975	0.755446	0.249493	2594.022461
7088.563890	0.094413	0.249493	2680.410156
7088.564802	0.090132	0.249493	2762.610352
7088.565705	0.090238	0.249493	2844.095215
7088.566642	0.090132	0.249493	2928.548828
7088.567559	0.090143	0.249493	3011.209717
7088.568481	0.090212	0.249493	3094.385498
7088.569370	0.090201	0.249493	3174.574463
7088.570319	0.090114	0.249493	3260.092285
7088.571237	0.090242	0.249493	3342.934082
7088.572124	0.090121	0.249493	3422.871338
7089.581535	1.074419	0.274678	484.562927
7089.582428	1.542616	0.274678	1862.119141
7089.583363	0.788606	0.274678	2599.465820
7089.584303	0.095145	0.274678	2688.902344
7089.585222	0.090092	0.274678	2771.696533
7089.586120	0.090260	0.274678	2852.750000
7089.587044	0.090205	0.274678	2936.099609
7089.587982	0.090264	0.274678	3020.766846
7089.588902	0.090220	0.274678	3103.769043
7089.589793	0.090278	0.274678	3184.207031
7089.590742	0.090253	0.274678	3269.856934
7089.591681	0.090176	0.274678	3354.531982
7089.592570	0.090238	0.274678	3434.753662
7090.592710	1.062257	0.253372	459.957306
7090.593647	1.542392	0.253372	1905.179077
7090.594622	0.683474	0.253372	2571.566406
7090.595542	0.093380	0.253372	2657.476074
7090.596443	0.090198	0.253372	2738.744141
7090.597364	0.090223	0.253372	2821.839844
7090.598310	0.090275	0.253372	2907.239746
7090.599228	0.090300	0.253372	2990.135498
7090.600116	0.090220	0.253372	3070.250488
7090.601061	0.090201	0.253372	3155.490723
7090.601994	0.090154	0.253372	3239.604248
7090.602891	0.090242	0.253372	3320.551025
7090.603813	0.090165	0.253372	3403.682861
7091.621844	1.081234	0.270899	478.986694
7091.622765	1.543348	0.270899	1900.410645
7091.623678	0.777737	0.270899	2610.484375
7091.624607	0.096720	0.270899	2700.337158
7091.625514	0.090286	0.270899	2782.226318
7091.626424	0.090227	0.270899	2864.333008
7091.627317	0.090220	0.270899	2944.899170
7091.628256	0.090267	0.270899	3029.660156
7091.629150	0.090337	0.270899	3110.421387
7091.630053	0.090300	0.270899	3191.962646
7091.630945	0.090165	0.270899	3272.389648
7091.631899	0.090260	0.270899	3358.497803
7091.632803	0.090242	0.270899	3440.076172
7092.624903	1.141088	0.255149	564.838379
7092.625815	1.545395	0.255149	1974.239014
7092.626726	0.710211	0.255149	2621.241455
7092.627613	0.095101	0.255149	2705.596436
7092.628560	0.090234	0.255149	2791.048340
7092.629460	0.090150	0.255149	2872.183594
7092.630362	0.090264	0.255149	2953.601318
7092.631296	0.090278	0.255149	3037.921387
7092.632208	0.090297	0.255149	3120.271973
7092.633115	0.090275	0.255149	3202.151123
7092.634007	0.090234	0.255149	3282.640137
7092.634967	0.090311	0.255149	3369.338867
7092.635869	0.090275	0.255149	3450.766602
7093.662221	1.133789	0.266198	573.697266
7093.663134	1.545443	0.266198	1984.686768
7093.664067	0.671125	0.266198	2610.846924
7093.664961	0.094021	0.266198	2694.901611
7093.665906	0.090264	0.266198	2780.200684
7093.666814	0.090198	0.266198	2862.100342
7093.667703	0.090282	0.266198	2942.361084
7093.668633	0.090264	0.266198	3026.306396
7093.669550	0.090227	0.266198	3109.044678
7093.670456	0.090234	0.266198	3190.797119
7093.671344	0.090190	0.266198	3270.886230
7093.672289	0.090209	0.266198	3356.133545
7093.673200	0.090271	0.266198	3438.370361
7094.658559	1.090236	0.270207	534.215454
7094.659480	1.544949	0.270207	1957.113159
7094.660402	0.704103	0.270207	2606.295898
7094.661297	0.094523	0.270207	2690.893799
7094.662216	0.090179	0.270207	2773.768799
7094.663139	0.090209	0.270207	2857.031494
7094.664070	0.090242	0.270207	2941.046387
7094.664967	0.090216	0.270207	3021.970215
7094.665902	0.090267	0.270207	3106.370117
7094.666816	0.090198	0.270207	3188.810791
7094.667740	0.090286	0.270207	3272.234619
7094.668623	0.090223	0.270207	3351.901855
7094.669570	0.090190	0.270207	3437.312256
7095.699970	1.146775	0.245255	571.093872
7095.700922	1.546007	0.245255	2042.892578
7095.701846	0.631853	0.245255	2626.724854
7095.702737	0.093292	0.245255	2709.848145
7095.703684	0.090139	0.245255	2795.209961
7095.704606	0.090205	0.245255	2878.379150
7095.705504	0.090249	0.245255	2959.422852
7095.706424	0.090157	0.245255	3042.367676
7095.707362	0.090227	0.245255	3127.000732
7095.708277	0.090231	0.245255	3209.561768
7095.709165	0.090194	0.245255	3289.654053
7095.710108	0.090260	0.245255	3374.769287
7095.711039	0.090242	0.245255	3458.784180
7096.698333	1.076576	0.272003	479.076324
7096.699233	1.542400	0.272003	1867.236206
7096.700190	0.739753	0.272003	2575.180176
7096.701137	0.094453	0.272003	2664.627197
7096.702063	0.090220	0.272003	2748.170654
7096.702950	0.090168	0.272003	2828.150146
7096.703889	0.090264	0.272003	2912.907715
7096.704821	0.090282	0.272003	2997.050537
7096.705718	0.090271	0.272003	3078.023682
7096.706639	0.090315	0.272003	3161.203857
7096.707583	0.090216	0.272003	3246.367920
7096.708510	0.090275	0.272003	3330.052490
7096.709407	0.090278	0.272003	3411.032227
7097.730510	1.083713	0.244740	481.168701
7097.731478	1.545062	0.244740	1976.789062
7097.732400	0.700737	0.244740	2622.868896
7097.733291	0.094633	0.244740	2707.186523
7097.734222	0.090198	0.244740	2791.160645
7097.735130	0.090238	0.244740	2873.096680
7097.736031	0.090249	0.244740	2954.411133
7097.736922	0.090253	0.244740	3034.826172
7097.737872	0.090267	0.244740	3120.580078
7097.738779	0.090242	0.244740	3202.429199
7097.739682	0.090249	0.244740	3283.924072
7097.740600	0.090256	0.244740	3366.779297
7097.741516	0.090264	0.244740	3449.460937
7098.738656	1.083289	0.260515	489.646423
7098.739554	1.542843	0.260515	1875.119385
7098.740453	0.821188	0.260515	2613.367187
7098.741399	0.095607	0.260515	2703.811035
7098.742310	0.090176	0.260515	2785.961182
7098.743210	0.090227	0.260515	2867.165527
7098.744098	0.090209	0.260515	2947.270996
7098.745044	0.090165	0.260515	3032.566895
7098.745950	0.090168	0.260515	3114.259521
7098.746843	0.090223	0.260515	3194.829102
7098.747786	0.090315	0.260515	3279.996094
7098.748692	0.090275	0.260515	3361.784912
7098.749581	0.090216	0.260515	3441.987061
7099.760587	1.064337	0.250536	461.922302
7099.761489	1.541085	0.250536	1851.981201
7099.762457	0.734736	0.250536	2563.206055
7099.763376	0.094523	0.250536	2650.072510
7099.764263	0.090146	0.250536	2730.032471
7099.765188	0.090190	0.250536	2813.458496
7099.766107	0.090216	0.250536	2896.366943
7099.767028	0.090212	0.250536	2979.452637
7099.767915	0.090179	0.250536	3059.441895
7099.768870	0.090201	0.250536	3145.584229
7099.769777	0.090282	0.250536	3227.469971
7099.770697	0.090242	0.250536	3310.492432
7099.771587	0.090223	0.250536	3390.791260
7100.778445	1.073350	0.258174	472.273834
7100.779393	1.542268	0.258174	1934.343872
7100.780336	0.688099	0.258174	2583.221680
7100.781262	0.093490	0.258174	2669.793457
7100.782155	0.090143	0.258174	2750.291016
7100.783113	0.090183	0.258174	2836.686523
7100.784043	0.090187	0.258174	2920.560303
7100.784948	0.090190	0.258174	3002.182617
7100.785871	0.090201	0.258174	3085.438477
7100.786805	0.090267	0.258174	3169.748047
7100.787722	0.090223	0.258174	3252.482910
7100.788610	0.090150	0.258174	3332.536133
7100.789560	0.090135	0.258174	3418.164795
7101.792736	1.074206	0.244280	493.060760
7101.793697	1.545037	0.244280	1977.840942
7101.794622	0.673484	0.244280	2600.813477
7101.795521	0.093776	0.244280	2685.117676
7101.796433	0.090234	0.244280	2767.411377
7101.797362	0.090322	0.244280	2851.320801
7101.798261	0.090238	0.244280	2932.444824
7101.799169	0.090187	0.244280	3014.334473
7101.800061	0.090212	0.244280	3094.803955
7101.801002	0.090315	0.244280	3179.790283
7101.801912	0.090154	0.244280	3261.830322
7101.802802	0.090253	0.244280	3342.155273
7101.803730	0.090249	0.244280	3425.906250
7102.817743	1.074598	0.252567	474.972504
7102.818656	1.543023	0.252567	1883.752075
7102.819561	0.804254	0.252567	2611.602051
7102.820499	0.096284	0.252567	2701.916504
7102.821401	0.090190	0.252567	2783.268311
7102.822295	0.090249	0.252567	2863.950928
7102.823180	0.090198	0.252567	2943.775879
7102.824126	0.090275	0.252567	3029.175781
7102.825027	0.090201	0.252567	3110.447266
7102.825922	0.090212	0.252567	3191.187256
7102.826857	0.090205	0.252567	3275.529053
7102.827761	0.090256	0.252567	3357.120850
7102.828653	0.090271	0.252567	3437.642578
7103.825372	1.082025	0.253030	482.583221
7103.826273	1.543000	0.253030	1872.826660
7103.827171	0.818313	0.253030	2607.671875
7103.828137	0.094980	0.253030	2699.423096
7103.829040	0.090084	0.253030	2780.769043
7103.829934	0.090319	0.253030	2861.513916
7103.830856	0.090165	0.253030	2944.645752
7103.831781	0.090212	0.253030	3028.092285
7103.832675	0.090267	0.253030	3108.791260
7103.833561	0.090304	0.253030	3188.800537
7103.834502	0.090256	0.253030	3273.731689
7103.835399	0.090209	0.253030	3354.648926
7103.836314	0.090205	0.253030	3437.186523
7104.858064	1.080839	0.247346	479.892365
7104.859043	1.544593	0.247346	1992.049316
7104.859977	0.665966	0.247346	2614.061035
7104.860865	0.093673	0.247346	2697.242676
7104.861786	0.090139	0.247346	2780.260742
7104.862726	0.090194	0.247346	2865.043213
7104.863642	0.090146	0.247346	2947.617432
7104.864540	0.090161	0.247346	3028.582031
7104.865492	0.090183	0.247346	3114.436279
7104.866427	0.090227	0.247346	3198.798584
7104.867323	0.090223	0.247346	3279.638672
7104.868232	0.090157	0.247346	3361.591797
7104.869183	0.090216	0.247346	3447.387207
7105.862123	1.082098	0.247205	501.011536
7105.863035	1.544008	0.247205	1909.146484
7105.863968	0.730660	0.247205	2590.852539
7105.864866	0.095057	0.247205	2676.214111
7105.865813	0.090183	0.247205	2761.617432
7105.866743	0.090256	0.247205	2845.555908
7105.867649	0.090234	0.247205	2927.308350
7105.868555	0.090205	0.247205	3009.034180
7105.869490	0.090150	0.247205	3093.324463
7105.870429	0.090223	0.247205	3178.044189
7105.871325	0.090165	0.247205	3258.831787
7105.872257	0.090125	0.247205	3342.827881
7105.873185	0.090165	0.247205	3426.500732
7106.894794	1.064626	0.247676	463.112518
7106.895742	1.542012	0.247676	1924.939697
7106.896707	0.696680	0.247676	2597.235596
7106.897614	0.093541	0.247676	2682.077637
7106.898507	0.090157	0.247676	2762.588379
7106.899447	0.090289	0.247676	2847.460205
7106.900354	0.090315	0.247676	2929.375977
7106.901258	0.090311	0.247676	3011.017334
7106.902162	0.090264	0.247676	3092.615723
7106.903089	0.090282	0.247676	3176.307129
7106.903990	0.090205	0.247676	3257.582031
7106.904899	0.090194	0.247676	3339.568359
7106.905789	0.090275	0.247676	3419.912842
7107.898325	1.080124	0.245090	479.575287
7107.899219	1.542235	0.245090	1858.333374
7107.900187	0.735974	0.245090	2570.756348
7107.901092	0.095486	0.245090	2657.171143
7107.901988	0.090121	0.245090	2737.919434
7107.902906	0.090256	0.245090	2820.774658
7107.903823	0.090319	0.245090	2903.596924
7107.904734	0.090172	0.245090	2985.743652
7107.905631	0.090286	0.245090	3066.729980
7107.906559	0.090319	0.245090	3150.545654
7107.907461	0.090227	0.245090	3231.930420
7107.908361	0.090267	0.245090	3313.170898
7107.909252	0.090267	0.245090	3393.599121
7108.932043	1.064498	0.242335	467.314758
7108.932938	1.540382	0.242335	1845.956787
7108.933933	0.695925	0.242335	2538.402344
7108.934835	0.094197	0.242335	2623.367920
7108.935726	0.090029	0.242335	2703.583984
7108.936662	0.090150	0.242335	2787.964600
7108.937561	0.090077	0.242335	2868.943848
7108.938461	0.090011	0.242335	2949.953613
7108.939348	0.090216	0.242335	3029.975342
7108.940283	0.090293	0.242335	3114.399170
7108.941198	0.090271	0.242335	3196.997070
7108.942100	0.090205	0.242335	3278.362061
7108.942990	0.090176	0.242335	3358.618408
7109.934563	1.091243	0.241042	497.606659
7109.935466	1.543477	0.241042	1891.366089
7109.936366	0.805613	0.241042	2616.417480
7109.937304	0.095640	0.241042	2706.127441
7109.938220	0.090168	0.241042	2788.721680
7109.939134	0.090256	0.241042	2871.216064
7109.940024	0.090209	0.241042	2951.501953
7109.940969	0.090234	0.241042	3036.773437
7109.941864	0.090198	0.241042	3117.500488
7109.942754	0.090260	0.241042	3197.831787
7109.943703	0.090326	0.241042	3283.551025
7109.944605	0.090267	0.241042	3364.972168
7109.945508	0.090278	0.241042	3446.493408
7110.967783	1.100764	0.244687	501.948456
7110.968695	1.543769	0.244687	1909.866211
7110.969632	0.728108	0.244687	2592.103271
7110.970539	0.095054	0.244687	2678.316895
7110.971491	0.090165	0.244687	2764.153809
7110.972417	0.090201	0.244687	2847.680420
7110.973342	0.090201	0.244687	2931.116699
7110.974233	0.090179	0.244687	3011.466553
7110.975183	0.090176	0.244687	3097.133545
7110.976118	0.090227	0.244687	3181.495850
7110.977008	0.090238	0.244687	3261.807617
7110.977920	0.090165	0.244687	3344.037842
7110.978856	0.090161	0.244687	3428.428711
7111.970764	1.081051	0.234105	477.824585
7111.971740	1.545597	0.234105	1986.327148
7111.972688	0.641235	0.234105	2594.218262
7111.973588	0.093490	0.234105	2678.359375
7111.974524	0.090157	0.234105	2762.746826
7111.975475	0.090157	0.234105	2848.486572
7111.976398	0.090300	0.234105	2931.833740
7111.977285	0.090227	0.234105	3011.865234
7111.978220	0.090154	0.234105	3096.158936
7111.979161	0.090190	0.234105	3181.028076
7111.980080	0.090216	0.234105	3263.936523
7111.980978	0.090212	0.234105	3344.947266
7111.981926	0.090216	0.234105	3430.472168
7113.002482	1.094608	0.244522	507.898193
7113.003402	1.544081	0.244522	1928.452515
7113.004300	0.759829	0.244522	2610.779053
7113.005232	0.095753	0.244522	2700.020996
7113.006173	0.090099	0.244522	2784.803955
7113.007092	0.090220	0.244522	2867.715820
7113.007983	0.090150	0.244522	2948.039551
7113.008933	0.090209	0.244522	3033.737793
7113.009870	0.090183	0.244522	3118.239258
7113.010769	0.090183	0.244522	3199.313965
7113.011693	0.090264	0.244522	3282.717529
7113.012626	0.090238	0.244522	3366.909668
7113.013544	0.090264	0.244522	3449.771729
7114.006996	1.070662	0.241654	476.444427
7114.007887	1.541799	0.241654	1850.187622
7114.008846	0.752197	0.241654	2571.544922
7114.009783	0.094087	0.241654	2659.704346
7114.010700	0.090212	0.241654	2742.429199
7114.011590	0.090223	0.241654	2822.728027
7114.012538	0.090242	0.241654	2908.277100
7114.013475	0.090234	0.241654	2992.826660
7114.014367	0.090256	0.241654	3073.335205
7114.015297	0.090256	0.241654	3157.273682
7114.016232	0.090157	0.241654	3241.570801
7114.017166	0.090220	0.241654	3325.835937
7114.018060	0.090278	0.241654	3406.544678
7115.035080	1.063982	0.253751	464.960083
7115.036043	1.544971	0.253751	1952.766968
7115.036968	0.705004	0.253751	2604.895508
7115.037866	0.094655	0.253751	2689.895264
7115.038752	0.090253	0.253751	2769.859131
7115.039691	0.090341	0.253751	2854.688965
7115.040599	0.090172	0.253751	2936.565186
7115.041487	0.090198	0.253751	3016.660889
7115.042431	0.090308	0.253751	3101.911377
7115.043325	0.090341	0.253751	3182.675781
7115.044225	0.090223	0.253751	3263.876953
7115.045118	0.090271	0.253751	3344.489014
7115.046044	0.090377	0.253751	3428.178223
7116.043746	1.089137	0.242907	494.468170
7116.044648	1.541360	0.242907	1884.774780
7116.045544	0.812058	0.242907	2612.378906
7116.046488	0.097522	0.242907	2704.439697
7116.047392	0.090121	0.242907	2785.908936
7116.048317	0.090245	0.242907	2869.385986
7116.049219	0.090245	0.242907	2950.787354
7116.050162	0.090245	0.242907	3035.888672
7116.051071	0.090172	0.242907	3117.855225
7116.051993	0.090168	0.242907	3200.990479
7116.052880	0.090267	0.242907	3281.057617
7116.053828	0.090114	0.242907	3366.485352
7116.054723	0.090187	0.242907	3447.202393
7117.068756	1.075302	0.253489	473.132660
7117.069657	1.541953	0.253489	1862.432373
7117.070622	0.736220	0.253489	2572.884277
7117.071544	0.094197	0.253489	2659.733643
7117.072441	0.090231	0.253489	2740.670654
7117.073357	0.090205	0.253489	2823.298584
7117.074296	0.090125	0.253489	2907.925537
7117.075220	0.090271	0.253489	2991.335937
7117.076109	0.090242	0.253489	3071.560791
7117.077053	0.090304	0.253489	3156.807617
7117.077970	0.090165	0.253489	3239.488770
7117.078876	0.090231	0.253489	3321.237793
7117.079773	0.090289	0.253489	3402.227295
7118.083012	1.067721	0.241545	464.458649
7118.083953	1.542927	0.241545	1916.353149
7118.084925	0.671038	0.241545	2568.601562
7118.085841	0.093387	0.241545	2654.144531
7118.086730	0.090172	0.241545	2734.307617
7118.087684	0.090187	0.241545	2820.345703
7118.088623	0.090220	0.241545	2905.062012
7118.089520	0.090271	0.241545	2986.035156
7118.090448	0.090205	0.241545	3069.745361
7118.091377	0.090190	0.241545	3153.532227
7118.092290	0.090253	0.241545	3235.932861
7118.093188	0.090198	0.241545	3316.930420
7118.094122	0.090231	0.241545	3401.205811
7119.100922	1.114164	0.252877	538.141174
7119.101856	1.544440	0.252877	1980.647949
7119.102787	0.677805	0.252877	2611.684570
7119.103675	0.094142	0.252877	2695.282471
7119.104610	0.090110	0.252877	2779.535156
7119.105542	0.090223	0.252877	2863.623291
7119.106442	0.090245	0.252877	2944.844238
7119.107361	0.090176	0.252877	3027.715820
7119.108294	0.090209	0.252877	3111.880615
7119.109234	0.090143	0.252877	3196.614746
7119.110134	0.090201	0.252877	3277.795898
7119.111050	0.090154	0.252877	3360.376709
7119.111987	0.090139	0.252877	3444.837158
7120.122341	1.083420	0.237718	489.706024
7120.123241	1.542217	0.237718	1877.701172
7120.124142	0.804393	0.237718	2602.459473
7120.125097	0.095779	0.237718	2693.928223
7120.126013	0.090183	0.237718	2776.535889
7120.126913	0.090143	0.237718	2857.664551
7120.127830	0.090194	0.237718	2940.372559
7120.128772	0.090143	0.237718	3025.287109
7120.129678	0.090179	0.237718	3106.989746
7120.130569	0.090187	0.237718	3187.346191
7120.131520	0.090168	0.237718	3273.096436
7120.132456	0.090212	0.237718	3357.535156
7120.133360	0.090286	0.237718	3439.153320
7121.133515	1.069720	0.247068	467.467804
7121.134468	1.542041	0.247068	1937.032837
7121.135416	0.699364	0.247068	2600.029785
7121.136338	0.093497	0.247068	2686.234375
7121.137233	0.090242	0.247068	2767.000732
7121.138170	0.090216	0.247068	2851.533203
7121.139100	0.090249	0.247068	2935.464844
7121.140023	0.090110	0.247068	3018.636230
7121.140926	0.090238	0.247068	3100.121094
7121.141880	0.090326	0.247068	3186.291992
7121.142777	0.090308	0.247068	3267.297852
7121.143675	0.090264	0.247068	3348.354736
7121.144563	0.090234	0.247068	3428.482910
7122.163651	1.062700	0.233352	461.211853
7122.164544	1.539840	0.233352	1836.289062
7122.165544	0.699331	0.233352	2535.620117
7122.166458	0.094102	0.233352	2621.628906
7122.167359	0.090223	0.233352	2702.920166
7122.168288	0.090231	0.233352	2786.744385
7122.169182	0.090300	0.233352	2867.472900
7122.170088	0.090198	0.233352	2949.192139
7122.170975	0.090201	0.233352	3029.200684
7122.171943	0.090183	0.233352	3116.498047
7122.172837	0.090282	0.233352	3197.210205
7122.173739	0.090176	0.233352	3278.548828
7122.174632	0.090337	0.233352	3359.219727
7123.166158	1.077784	0.250005	476.380707
7123.167062	1.542645	0.250005	1870.932007
7123.167966	0.799834	0.250005	2593.981934
7123.168926	0.094893	0.250005	2685.078857
7123.169835	0.090128	0.250005	2767.005371
7123.170735	0.090209	0.250005	2848.193359
7123.171656	0.090227	0.250005	2931.292480
7123.172562	0.090260	0.250005	3013.068115
7123.173467	0.090260	0.250005	3094.753418
7123.174356	0.090282	0.250005	3175.014160
7123.175304	0.090344	0.250005	3260.660400
7123.176209	0.090242	0.250005	3342.329102
7123.177100	0.090209	0.250005	3422.705078
7124.202498	1.140494	0.238097	565.685181
7124.203422	1.545088	0.238097	1993.346313
7124.204358	0.655873	0.238097	2607.243164
7124.205258	0.093607	0.238097	2691.489746
7124.206221	0.090132	0.238097	2778.286621
7124.207122	0.090179	0.238097	2859.538330
7124.208013	0.090194	0.238097	2939.901367
7124.208941	0.090223	0.238097	3023.628662
7124.209843	0.090146	0.238097	3104.940674
7124.210747	0.090165	0.238097	3186.449707
7124.211636	0.090209	0.238097	3266.645264
7124.212569	0.090249	0.238097	3350.847656
7124.213476	0.090212	0.238097	3432.670410
7125.201350	1.064315	0.237863	460.848480
7125.202311	1.542693	0.237863	1943.376221
7125.203245	0.701353	0.237863	2598.439453
7125.204168	0.093768	0.237863	2684.987549
7125.205055	0.090135	0.237863	2764.937744
7125.206003	0.090253	0.237863	2850.497314
7125.206903	0.090176	0.237863	2931.655518
7125.207822	0.090220	0.237863	3014.567383
7125.208723	0.090194	0.237863	3095.832275
7125.209672	0.090223	0.237863	3181.454346
7125.210576	0.090216	0.237863	3263.009766
7125.211506	0.090234	0.237863	3346.927734
7125.212395	0.090227	0.237863	3427.139648
7126.237676	1.088957	0.250653	495.475616
7126.238580	1.541840	0.250653	1889.298584
7126.239477	0.798256	0.250653	2605.333740
7126.240436	0.095618	0.250653	2697.031006
7126.241373	0.090033	0.250653	2781.391846
7126.242261	0.089993	0.250653	2861.305420
7126.243182	0.089989	0.250653	2944.185303
7126.244119	0.090070	0.250653	3028.580566
7126.245041	0.090106	0.250653	3111.658447
7126.245938	0.090117	0.250653	3192.493652
7126.246866	0.090015	0.250653	3276.027344
7126.247795	0.090099	0.250653	3359.729248
7126.248711	0.090114	0.250653	3442.273193
7127.237628	1.116808	0.235986	532.717407
7127.238540	1.544059	0.235986	1940.899170
7127.239435	0.762173	0.235986	2623.043945
7127.240361	0.094845	0.235986	2710.870361
7127.241309	0.090190	0.235986	2796.370850
7127.242226	0.090297	0.235986	2879.172852
7127.243117	0.090267	0.235986	2959.601074
7127.244072	0.090194	0.235986	3045.736328
7127.245016	0.090179	0.235986	3130.865723
7127.245910	0.090256	0.235986	3211.554932
7127.246835	0.090249	0.235986	3295.035156
7127.247772	0.090238	0.235986	3379.588135
7127.248690	0.090209	0.235986	3462.399658
7128.271343	1.089185	0.249034	506.470856
7128.272258	1.542821	0.249034	1918.152100
7128.273157	0.769113	0.249034	2609.584229
7128.274116	0.094819	0.249034	2700.515869
7128.275048	0.090092	0.249034	2784.481201
7128.275934	0.090264	0.249034	2864.454834
7128.276859	0.090201	0.249034	2947.891113
7128.277781	0.090231	0.249034	3031.083740
7128.278710	0.090187	0.249034	3114.867187
7128.279609	0.090220	0.249034	3195.974609
7128.280535	0.090234	0.249034	3279.531738
7128.281473	0.090223	0.249034	3364.161377
7128.282401	0.090256	0.249034	3447.919189
7129.277424	1.099918	0.229553	519.161438
7129.278363	1.543865	0.229553	1968.850342
7129.279258	0.728060	0.229553	2620.464355
7129.280179	0.095149	0.229553	2708.096436
7129.281118	0.090187	0.229553	2792.781738
7129.282043	0.090286	0.229553	2876.295898
7129.282940	0.090212	0.229553	2957.216309
7129.283881	0.090271	0.229553	3042.161377
7129.284817	0.090179	0.229553	3126.569336
7129.285742	0.090150	0.229553	3209.958252
7129.286637	0.090227	0.229553	3290.711426
7129.287589	0.090308	0.229553	3376.684326
7129.288481	0.090311	0.229553	3457.241943
7130.302421	1.086559	0.258081	487.864899
7130.303326	1.541975	0.258081	1883.352417
7130.304281	0.739775	0.258081	2589.837891
7130.305190	0.094819	0.258081	2676.028564
7130.306099	0.090205	0.258081	2758.024902
7130.306990	0.090289	0.258081	2838.472656
7130.307941	0.090315	0.258081	2924.362061
7130.308847	0.090260	0.258081	3006.137695
7130.309739	0.090234	0.258081	3086.626709
7130.310661	0.090198	0.258081	3169.789062
7130.311572	0.090275	0.258081	3252.029297
7130.312484	0.090223	0.258081	3334.312988
7130.313387	0.090201	0.258081	3415.764893
7131.318234	1.086910	0.233915	488.022766
7131.319132	1.541444	0.233915	1872.239502
7131.320033	0.823077	0.233915	2613.832275
7131.320983	0.095720	0.233915	2704.766602
7131.321874	0.090161	0.233915	2785.100098
7131.322781	0.090234	0.233915	2866.942627
7131.323673	0.090183	0.233915	2947.385986
7131.324623	0.090286	0.233915	3033.157227
7131.325527	0.090198	0.233915	3114.696045
7131.326433	0.090300	0.233915	3196.508057
7131.327366	0.090249	0.233915	3280.710449
7131.328271	0.090249	0.233915	3362.385742
7131.329171	0.090172	0.233915	3443.540527
7132.333003	1.064355	0.269997	465.123352
7132.333902	1.540551	0.269997	1850.078369
7132.334882	0.718158	0.269997	2553.873047
7132.335788	0.094827	0.269997	2639.785889
7132.336678	0.090157	0.269997	2720.026123
7132.337593	0.090183	0.269997	2802.543701
7132.338513	0.090209	0.269997	2885.535645
7132.339414	0.090198	0.269997	2966.803711
7132.340305	0.090201	0.269997	3047.173096
7132.341244	0.090143	0.269997	3131.817139
7132.342159	0.090234	0.269997	3214.381592
7132.343060	0.090205	0.269997	3295.656250
7132.343950	0.090238	0.269997	3375.968018
7133.358093	1.109971	0.234830	558.315247
7133.359009	1.543912	0.234830	1972.538818
7133.359948	0.662047	0.234830	2594.201172
7133.360836	0.093904	0.234830	2677.587646
7133.361784	0.090146	0.234830	2763.046387
7133.362678	0.090125	0.234830	2843.617676
7133.363592	0.090161	0.234830	2926.024902
7133.364488	0.090205	0.234830	3006.848633
7133.365443	0.090121	0.234830	3092.914062
7133.366343	0.090143	0.234830	3174.042480
7133.367238	0.090216	0.234830	3254.785889
7133.368161	0.090212	0.234830	3338.052002
7133.369076	0.090183	0.234830	3420.569580
7134.364111	1.075283	0.267713	476.350433
7134.365085	1.543524	0.267713	1979.743042
7134.365990	0.716173	0.267713	2627.879639
7134.366877	0.094984	0.267713	2712.130615
7134.367811	0.090194	0.267713	2796.371826
7134.368744	0.090187	0.267713	2880.516113
7134.369652	0.090176	0.267713	2962.395752
7134.370544	0.090267	0.267713	3042.914307
7134.371470	0.090227	0.267713	3126.464600
7134.372385	0.090198	0.267713	3208.995605
7134.373310	0.090209	0.267713	3292.438721
7134.374199	0.090264	0.267713	3372.683105
7134.375148	0.090238	0.267713	3458.319092
7135.397325	1.067197	0.232095	465.297974
7135.398267	1.540781	0.232095	1916.713867
7135.399187	0.752212	0.232095	2608.748779
7135.400099	0.095054	0.232095	2695.437744
7135.401001	0.090183	0.232095	2776.782959
7135.401944	0.090176	0.232095	2861.818604
7135.402854	0.090231	0.232095	2943.928467
7135.403780	0.090187	0.232095	3027.441406
7135.404669	0.090227	0.232095	3107.653320
7135.405619	0.090227	0.232095	3193.369141
7135.406543	0.090157	0.232095	3276.674561
7135.407434	0.090212	0.232095	3357.053711
7135.408373	0.090168	0.232095	3441.721924
7136.399844	1.085376	0.261663	493.846100
7136.400738	1.543052	0.261663	1873.334351
7136.401722	0.721710	0.261663	2583.497070
7136.402617	0.094596	0.261663	2668.160400
7136.403534	0.090154	0.261663	2750.831543
7136.404433	0.090260	0.261663	2831.975342
7136.405376	0.090227	0.261663	2917.059570
7136.406299	0.090227	0.261663	3000.339111
7136.407195	0.090278	0.261663	3081.228516
7136.408109	0.090201	0.261663	3163.672607
7136.409037	0.090209	0.261663	3247.386230
7136.409963	0.090223	0.261663	3330.933105
7136.410854	0.090322	0.261663	3411.410156
7137.435625	1.111348	0.225625	518.999390
7137.436558	1.544879	0.225625	1960.371582
7137.437498	0.680973	0.225625	2600.486084
7137.438384	0.094391	0.225625	2684.116455
7137.439333	0.090179	0.225625	2769.696777
7137.440267	0.090209	0.225625	2853.951660
7137.441159	0.090319	0.225625	2934.515869
7137.442086	0.090168	0.225625	3018.102051
7137.443013	0.090161	0.225625	3101.681396
7137.443933	0.090234	0.225625	3184.697021
7137.444833	0.090253	0.225625	3265.924316
7137.445780	0.090249	0.225625	3351.390137
7137.446719	0.090176	0.225625	3436.065186
7138.434510	1.072423	0.253123	476.155853
7138.435475	1.543594	0.253123	1965.723877
7138.436424	0.656594	0.253123	2588.831787
7138.437351	0.093105	0.253123	2675.140625
7138.438240	0.090194	0.253123	2755.323242
7138.439178	0.090146	0.253123	2839.880615
7138.440116	0.090176	0.253123	2924.465576
7138.441014	0.090238	0.253123	3005.499268
7138.441933	0.090220	0.253123	3088.411133
7138.442877	0.090212	0.253123	3173.571533
7138.443799	0.090249	0.253123	3256.781250
7138.444689	0.090161	0.253123	3337.024658
7138.445643	0.090172	0.253123	3423.048828
7139.472375	1.083193	0.221577	523.182434
7139.473310	1.544246	0.221577	1967.052002
7139.474245	0.659066	0.221577	2583.278809
7139.475136	0.093959	0.221577	2666.996094
7139.476085	0.090198	0.221577	2752.593750
7139.477020	0.090227	0.221577	2836.956055
7139.477932	0.090278	0.221577	2919.289795
7139.478830	0.090238	0.221577	3000.323486
7139.479769	0.090205	0.221577	3085.026123
7139.480708	0.090223	0.221577	3169.745850
7139.481609	0.090264	0.221577	3251.073486
7139.482535	0.090176	0.221577	3334.576172
7139.483479	0.090253	0.221577	3419.774658
7140.470743	1.078663	0.244542	482.162506
7140.471644	1.541759	0.244542	1871.287354
7140.472586	0.761777	0.244542	2588.881592
7140.473528	0.094757	0.244542	2678.142822
7140.474440	0.090201	0.244542	2760.406494
7140.475328	0.090212	0.244542	2840.515137
7140.476276	0.090161	0.244542	2925.987793
7140.477212	0.090256	0.244542	3010.467773
7140.478128	0.090300	0.244542	3093.182861
7140.479014	0.090271	0.244542	3173.163086
7140.479961	0.090304	0.244542	3258.680908
7140.480855	0.090223	0.244542	3339.340576
7140.481753	0.090271	0.244542	3420.403809
7141.508560	1.071295	0.222443	474.583740
7141.509457	1.540887	0.222443	1856.759766
7141.510418	0.742079	0.222443	2569.897461
7141.511327	0.095229	0.222443	2656.461182
7141.512225	0.090176	0.222443	2737.438965
7141.513160	0.090374	0.222443	2821.938232
7141.514069	0.090286	0.222443	2904.007812
7141.514975	0.090190	0.222443	2985.720459
7141.515866	0.090256	0.222443	3066.138916
7141.516806	0.090300	0.222443	3151.021240
7141.517717	0.090238	0.222443	3233.228027
7141.518613	0.090231	0.222443	3314.074707
7141.519528	0.090231	0.222443	3396.635742
7142.505935	1.089188	0.242166	484.688751
7142.506918	1.544359	0.242166	2002.793823
7142.507846	0.663018	0.242166	2618.074219
7142.508736	0.093798	0.242166	2701.554199
7142.509665	0.090253	0.242166	2785.398926
7142.510570	0.090319	0.242166	2867.137207
7142.511473	0.090227	0.242166	2948.612305
7142.512363	0.090304	0.242166	3028.982910
7142.513299	0.090337	0.242166	3113.538330
7142.514208	0.090260	0.242166	3195.584717
7142.515128	0.090227	0.242166	3278.593506
7142.516022	0.090275	0.242166	3359.299072
7142.516972	0.090333	0.242166	3445.115723
7143.542729	1.063704	0.227446	461.647400
7143.543686	1.541433	0.227446	1936.798828
7143.544615	0.721483	0.227446	2607.056641
7143.545525	0.094395	0.227446	2692.955566
7143.546413	0.090146	0.227446	2773.005615
7143.547368	0.090245	0.227446	2859.189941
7143.548267	0.090198	0.227446	2940.277832
7143.549176	0.090234	0.227446	3022.300781
7143.550076	0.090300	0.227446	3103.571045
7143.551027	0.090311	0.227446	3189.457031
7143.551927	0.090245	0.227446	3270.677734
7143.552816	0.090242	0.227446	3350.902588
7143.553748	0.090289	0.227446	3435.052246
7144.541146	1.084468	0.250681	488.010498
7144.542051	1.541946	0.250681	1883.471436
7144.542952	0.814827	0.250681	2617.630371
7144.543877	0.097943	0.250681	2708.227783
7144.544804	0.090154	0.250681	2791.800293
7144.545725	0.090165	0.250681	2874.842041
7144.546615	0.090183	0.250681	2955.104980
7144.547573	0.090103	0.250681	3041.423096
7144.548470	0.090249	0.250681	3122.376465
7144.549380	0.090209	0.250681	3204.466309
7144.550278	0.090216	0.250681	3285.480225
7144.551218	0.090205	0.250681	3370.272949
7144.552137	0.090168	0.250681	3453.137695
7145.578472	1.109458	0.230560	510.350677
7145.579409	1.545238	0.230560	1958.238770
7145.580309	0.748176	0.230560	2631.597412
7145.581269	0.093728	0.230560	2721.576416
7145.582203	0.090165	0.230560	2805.790283
7145.583124	0.090260	0.230560	2888.919678
7145.584013	0.090220	0.230560	2969.125000
7145.584959	0.090168	0.230560	3054.424316
7145.585885	0.090205	0.230560	3137.954102
7145.586782	0.090260	0.230560	3218.917236
7145.587710	0.090146	0.230560	3302.573242
7145.588653	0.090260	0.230560	3387.688477
7145.589585	0.090231	0.230560	3471.783447
7146.576849	1.077155	0.254907	475.025146
7146.577750	1.542385	0.254907	1864.714233
7146.578734	0.701667	0.254907	2555.155029
7146.579667	0.093567	0.254907	2642.452881
7146.580563	0.090198	0.254907	2723.270020
7146.581474	0.090187	0.254907	2805.430176
7146.582409	0.090106	0.254907	2889.679443
7146.583323	0.090223	0.254907	2972.143555
7146.584211	0.090212	0.254907	3052.252197
7146.585154	0.090194	0.254907	3137.305176
7146.586079	0.090168	0.254907	3220.710937
7146.586975	0.090212	0.254907	3301.541260
7146.587893	0.090154	0.254907	3384.302490
7147.612676	1.131790	0.233996	560.235840
7147.613594	1.545502	0.233996	1979.006348
7147.614500	0.712928	0.233996	2624.919434
7147.615389	0.095065	0.233996	2709.431885
7147.616336	0.090289	0.233996	2794.935791
7147.617245	0.090260	0.233996	2876.982178
7147.618145	0.090205	0.233996	2958.166748
7147.619078	0.090253	0.233996	3042.372559
7147.619980	0.090271	0.233996	3123.796875
7147.620876	0.090205	0.233996	3204.620605
7147.621764	0.090205	0.233996	3284.722656
7147.622705	0.090245	0.233996	3369.643555
7147.623600	0.090311	0.233996	3450.472168
7148.613089	1.096567	0.264499	496.745026
7148.614015	1.543876	0.264499	1926.373901
7148.614915	0.768344	0.264499	2617.883057
7148.615864	0.095215	0.264499	2708.241943
7148.616759	0.090253	0.264499	2789.018066
7148.617657	0.090223	0.264499	2870.038574
7148.618550	0.090275	0.264499	2950.653809
7148.619479	0.090293	0.264499	3034.535889
7148.620383	0.090234	0.264499	3116.107666
7148.621284	0.090209	0.264499	3197.385742
7148.622170	0.090216	0.264499	3277.317139
7148.623127	0.090322	0.264499	3363.755615
7148.624034	0.090198	0.264499	3445.564941
7149.644247	1.077026	0.243265	486.815918
7149.645143	1.542997	0.243265	1869.341064
7149.646044	0.811824	0.243265	2600.794189
7149.647002	0.095306	0.243265	2692.097656
7149.647906	0.090103	0.243265	2773.550293
7149.648801	0.090282	0.243265	2854.352783
7149.649739	0.090253	0.243265	2939.009766
7149.650638	0.090128	0.243265	3020.034912
7149.651558	0.090168	0.243265	3102.989990
7149.652452	0.090260	0.243265	3183.682373
7149.653386	0.090190	0.243265	3267.920166
7149.654291	0.090154	0.243265	3349.509277
7149.655201	0.090231	0.243265	3431.619141
7150.651857	1.075986	0.261800	478.813873
7150.652751	1.541667	0.261800	1857.064575
7150.653748	0.700027	0.261800	2554.991455
7150.654653	0.094395	0.261800	2640.418457
7150.655575	0.090143	0.261800	2723.530029
7150.656462	0.090194	0.261800	2803.532227
7150.657409	0.090194	0.261800	2888.946045
7150.658337	0.090238	0.261800	2972.687012
7150.659234	0.090344	0.261800	3053.725830
7150.660171	0.090264	0.261800	3138.302979
7150.661090	0.090209	0.261800	3221.204834
7150.662013	0.090264	0.261800	3304.518311
7150.662903	0.090249	0.261800	3384.839844
7151.677961	1.101332	0.231668	540.753906
7151.678891	1.545923	0.231668	1978.462158
7151.679801	0.681855	0.231668	2598.950684
7151.680731	0.094102	0.231668	2686.465088
7151.681676	0.090205	0.231668	2771.708984
7151.682595	0.090183	0.231668	2854.587158
7151.683495	0.090216	0.231668	2935.781738
7151.684446	0.090223	0.231668	3021.584229
7151.685386	0.090227	0.231668	3106.397705
7151.686313	0.090139	0.231668	3189.956787
7151.687199	0.090271	0.231668	3269.937012
7151.688141	0.090242	0.231668	3354.944580
7151.689068	0.090154	0.231668	3438.517090
7152.690636	1.074994	0.258650	472.997345
7152.691615	1.544520	0.258650	1985.082642
7152.692547	0.667778	0.258650	2607.452148
7152.693474	0.093318	0.258650	2693.957764
7152.694361	0.090154	0.258650	2773.924072
7152.695303	0.090231	0.258650	2858.921387
7152.696238	0.090286	0.258650	2943.338379
7152.697141	0.090297	0.258650	3024.876221
7152.698057	0.090267	0.258650	3107.561035
7152.698995	0.090198	0.258650	3192.166504
7152.699908	0.090311	0.258650	3274.620605
7152.700807	0.090245	0.258650	3355.751221
7152.701754	0.090161	0.258650	3441.133789
7153.709519	1.082139	0.232300	480.469574
7153.710421	1.542532	0.232300	1871.833252
7153.711319	0.824674	0.232300	2612.390625
7153.712270	0.095544	0.232300	2703.253418
7153.713173	0.090143	0.232300	2784.652344
7153.714074	0.090278	0.232300	2865.993164
7153.714994	0.090278	0.232300	2949.049316
7153.715908	0.090264	0.232300	3031.550293
7153.716813	0.090176	0.232300	3113.159424
7153.717703	0.090249	0.232300	3193.480957
7153.718632	0.090322	0.232300	3277.390381
7153.719541	0.090271	0.232300	3359.446777
7153.720441	0.090172	0.232300	3440.601562
7154.729946	1.090832	0.260164	489.783783
7154.730851	1.543491	0.260164	1886.643433
7154.731806	0.742467	0.260164	2595.699463
7154.732713	0.094944	0.260164	2681.813477
7154.733614	0.090216	0.260164	2763.098145
7154.734504	0.090231	0.260164	2843.403564
7154.735462	0.090289	0.260164	2929.900635
7154.736361	0.090315	0.260164	3011.093750
7154.737267	0.090176	0.260164	3092.792969
7154.738157	0.090271	0.260164	3173.134277
7154.739098	0.090326	0.260164	3258.130859
7154.740004	0.090194	0.260164	3339.846680
7154.740910	0.090253	0.260164	3421.615723
7155.739101	1.094227	0.236558	491.308075
7155.740021	1.543444	0.236558	1911.276245
7155.740938	0.756914	0.236558	2605.366455
7155.741844	0.096013	0.236558	2692.354492
7155.742778	0.090212	0.236558	2776.612793
7155.743682	0.090264	0.236558	2858.211182
7155.744572	0.090190	0.236558	2938.480713
7155.745517	0.090256	0.236558	3023.772949
7155.746425	0.090187	0.236558	3105.662598
7155.747316	0.090209	0.236558	3186.038574
7155.748205	0.090308	0.236558	3266.322021
7155.749149	0.090264	0.236558	3351.531006
7155.750062	0.090271	0.236558	3433.948486
7156.768719	1.082922	0.260966	480.817505
7156.769687	1.544868	0.260966	1976.250000
7156.770603	0.701462	0.260966	2618.789551
7156.771493	0.094523	0.260966	2702.914795
7156.772425	0.090176	0.260966	2786.958496
7156.773329	0.090190	0.260966	2868.490723
7156.774246	0.090231	0.260966	2951.232178
7156.775144	0.090183	0.260966	3032.216553
7156.776091	0.090286	0.260966	3117.717041
7156.776994	0.090110	0.260966	3199.086182
7156.777920	0.090139	0.260966	3282.554932
7156.778810	0.090223	0.260966	3362.853760
7156.779752	0.090216	0.260966	3447.837402
7157.773798	1.079301	0.236401	501.874756
7157.774705	1.543751	0.236401	1902.057129
7157.775607	0.780802	0.236401	2606.340576
7157.776569	0.094230	0.236401	2696.989502
7157.777489	0.090198	0.236401	2779.971436
7157.778381	0.090205	0.236401	2860.434326
7157.779288	0.090154	0.236401	2942.203857
7157.780232	0.090238	0.236401	3027.388672
7157.781153	0.090245	0.236401	3110.504639
7157.782047	0.090168	0.236401	3191.115234
7157.782983	0.090216	0.236401	3275.557373
7157.783900	0.090150	0.236401	3358.225098
7157.784829	0.090209	0.236401	3442.029053
7158.809551	1.085164	0.251894	481.812622
7158.810526	1.544656	0.251894	1987.852051
7158.811454	0.664266	0.251894	2604.291260
7158.812354	0.093691	0.251894	2688.613525
7158.813277	0.090132	0.251894	2771.805176
7158.814214	0.090183	0.251894	2856.306641
7158.815129	0.090289	0.251894	2938.921387
7158.816018	0.090209	0.251894	3019.116943
7158.816964	0.090249	0.251894	3104.492432
7158.817899	0.090139	0.251894	3188.772461
7158.818818	0.090190	0.251894	3271.657471
7158.819712	0.090190	0.251894	3352.287598
7158.820661	0.090194	0.251894	3437.881836
7159.807474	1.109967	0.248458	527.234314
7159.808387	1.543737	0.248458	1936.665771
7159.809284	0.762393	0.248458	2620.531982
7159.810214	0.095369	0.248458	2709.224854
7159.811164	0.090139	0.248458	2794.857178
7159.812080	0.090234	0.248458	2877.511963
7159.812970	0.090212	0.248458	2957.801025
7159.813927	0.090231	0.248458	3044.151855
7159.814863	0.090194	0.248458	3128.573486
7159.815756	0.090198	0.248458	3209.120117
7159.816677	0.090220	0.248458	3292.212402
7159.817608	0.090135	0.248458	3376.128662
7159.818525	0.090172	0.248458	3458.816406
7160.846280	1.063931	0.240683	463.873749
7160.847228	1.540477	0.240683	1924.246216
7160.848183	0.713295	0.240683	2605.442627
7160.849087	0.093922	0.240683	2690.348145
7160.849991	0.090187	0.240683	2771.876953
7160.850925	0.090227	0.240683	2856.148926
7160.851868	0.090245	0.240683	2941.250244
7160.852764	0.090286	0.240683	3022.146240
7160.853680	0.090253	0.240683	3104.817627
7160.854619	0.090267	0.240683	3189.578613
7160.855553	0.090242	0.240683	3273.864258
7160.856450	0.090256	0.240683	3354.824219
7160.857383	0.090157	0.240683	3438.941162
7161.844719	1.092448	0.253529	507.988098
7161.845630	1.542561	0.253529	1913.261230
7161.846531	0.769241	0.253529	2606.347168
7161.847485	0.095131	0.253529	2697.101807
7161.848412	0.090194	0.253529	2780.711670
7161.849309	0.090304	0.253529	2861.714355
7161.850227	0.090278	0.253529	2944.589844
7161.851155	0.090216	0.253529	3028.310303
7161.852082	0.090234	0.253529	3111.957520
7161.852982	0.090297	0.253529	3193.224365
7161.853904	0.090326	0.253529	3276.504883
7161.854815	0.090297	0.253529	3358.765137
7161.855721	0.090436	0.253529	3440.699951
7162.878419	1.083856	0.236711	484.483734
7162.879324	1.541675	0.236711	1879.699341
7162.880225	0.820591	0.236711	2619.051758
7162.881173	0.096112	0.236711	2710.166016
7162.882075	0.090212	0.236711	2791.537598
7162.882967	0.090216	0.236711	2872.010254
7162.883853	0.090293	0.236711	2952.009766
7162.884782	0.090278	0.236711	3035.878418
7162.885695	0.090205	0.236711	3118.235596
7162.886599	0.090234	0.236711	3199.807373
7162.887531	0.090293	0.236711	3283.960449
7162.888438	0.090322	0.236711	3365.882812
7162.889334	0.090267	0.236711	3446.762451
7163.884554	1.099801	0.240147	554.299744
7163.885469	1.543843	0.240147	1966.916016
7163.886373	0.710468	0.240147	2609.178711
7163.887259	0.094966	0.240147	2693.318359
7163.888210	0.090187	0.240147	2779.085937
7163.889125	0.090190	0.240147	2861.610107
7163.890021	0.090238	0.240147	2942.463379
7163.890911	0.090253	0.240147	3022.788330
7163.891854	0.090304	0.240147	3107.945068
7163.892761	0.090176	0.240147	3189.734375
7163.893652	0.090223	0.240147	3270.123535
7163.894587	0.090315	0.240147	3354.568115
7163.895493	0.090198	0.240147	3436.287354
7164.910026	1.067325	0.236747	468.555878
7164.910920	1.540660	0.236747	1845.906250
7164.911907	0.722076	0.236747	2558.595703
7164.912809	0.094841	0.236747	2644.142578
7164.913736	0.090234	0.236747	2727.789795
7164.914626	0.090260	0.236747	2808.121094
7164.915564	0.090234	0.236747	2892.760986
7164.916468	0.090341	0.236747	2974.428955
7164.917361	0.090205	0.236747	3054.982178
7164.918294	0.090289	0.236747	3139.222168
7164.919196	0.090238	0.236747	3220.616943
7164.920119	0.090135	0.236747	3303.812012
7164.921006	0.090190	0.236747	3383.811035
7165.922767	1.073767	0.240595	473.531281
7165.923666	1.542689	0.240595	1860.408813
7165.924576	0.813395	0.240595	2600.598145
7165.925543	0.095013	0.240595	2692.476074
7165.926448	0.090150	0.240595	2774.062012
7165.927373	0.090234	0.240595	2857.528809
7165.928259	0.090201	0.240595	2937.447266
7165.929214	0.090190	0.240595	3023.579102
7165.930131	0.090212	0.240595	3106.303955
7165.931023	0.090231	0.240595	3186.789795
7165.931965	0.090216	0.240595	3271.773437
7165.932875	0.090231	0.240595	3353.883301
7165.933793	0.090245	0.240595	3436.728516
7166.943221	1.107004	0.236707	524.720032
7166.944130	1.543949	0.236707	1928.169678
7166.945032	0.752135	0.236707	2606.595459
7166.945999	0.093948	0.236707	2697.442871
7166.946941	0.090212	0.236707	2782.422852
7166.947844	0.090278	0.236707	2863.944092
7166.948763	0.090260	0.236707	2946.893066
7166.949704	0.090253	0.236707	3031.820801
7166.950642	0.090275	0.236707	3116.498535
7166.951539	0.090227	0.236707	3197.432129
7166.952472	0.090264	0.236707	3281.648193
7166.953417	0.090220	0.236707	3366.905762
7166.954329	0.090289	0.236707	3449.249512
7167.961053	1.082827	0.237235	482.940948
7167.961949	1.541188	0.237235	1863.845215
7167.962927	0.712046	0.237235	2560.226074
7167.963857	0.094131	0.237235	2647.767822
7167.964746	0.090187	0.237235	2727.943848
7167.965668	0.090110	0.237235	2811.025146
7167.966594	0.090282	0.237235	2894.626221
7167.967513	0.090282	0.237235	2977.595459
7167.968413	0.090216	0.237235	3058.790039
7167.969359	0.090220	0.237235	3144.137939
7167.970293	0.090238	0.237235	3228.420166
7167.971194	0.090231	0.237235	3309.718018
7167.972111	0.090220	0.237235	3392.449463
7168.976371	1.125355	0.234367	533.418396
7168.977308	1.544165	0.234367	1980.301025
7168.978237	0.683276	0.234367	2615.064697
7168.979125	0.094329	0.234367	2698.828613
7168.980082	0.090242	0.234367	2785.189941
7168.981016	0.090220	0.234367	2869.455078
7168.981904	0.090289	0.234367	2949.632080
7168.982824	0.090289	0.234367	3032.698242
7168.983759	0.090216	0.234367	3117.050293
7168.984671	0.090249	0.234367	3199.357422
7168.985562	0.090179	0.234367	3279.707275
7168.986511	0.090275	0.234367	3365.377930
7168.987442	0.090249	0.234367	3449.399658
7169.999307	1.070632	0.233295	472.148865
7170.000281	1.544330	0.233295	1976.326172
7170.001205	0.680310	0.233295	2604.932617
7170.002114	0.093904	0.233295	2690.291260
7170.003010	0.090139	0.233295	2771.055908
7170.003958	0.090212	0.233295	2856.577148
7170.004861	0.090260	0.233295	2938.082031
7170.005760	0.090194	0.233295	3019.166504
7170.006675	0.090267	0.233295	3101.761230
7170.007587	0.090289	0.233295	3184.104980
7170.008490	0.090172	0.233295	3265.530518
7170.009378	0.090227	0.233295	3345.652100
7170.010309	0.090278	0.233295	3429.701172
7171.011548	1.088745	0.235515	492.112793
7171.012450	1.542059	0.235515	1883.050293
7171.013395	0.766091	0.235515	2607.006592
7171.014299	0.095204	0.235515	2693.070801
7171.015198	0.090132	0.235515	2774.099365
7171.016093	0.090227	0.235515	2854.852539
7171.017044	0.090286	0.235515	2940.714111
7171.017943	0.090315	0.235515	3021.907227
7171.018845	0.090227	0.235515	3103.291992
7171.019733	0.090227	0.235515	3183.413574
7171.020672	0.090267	0.235515	3268.174561
7171.021570	0.090121	0.235515	3349.103027
7171.022467	0.090198	0.235515	3430.010498
7172.037127	1.105107	0.237698	550.343506
7172.038048	1.544766	0.237698	1973.072754
7172.038951	0.710790	0.237698	2614.916016
7172.039842	0.094958	0.237698	2699.523926
7172.040782	0.090220	0.237698	2784.330566
7172.041690	0.090223	0.237698	2866.253418
7172.042593	0.090234	0.237698	2947.735107
7172.043485	0.090289	0.237698	3028.273193
7172.044433	0.090234	0.237698	3113.815430
7172.045336	0.090187	0.237698	3195.254150
7172.046228	0.090278	0.237698	3275.782471
7172.047167	0.090227	0.237698	3360.505615
7172.048070	0.090216	0.237698	3441.970703
7173.047766	1.082933	0.232675	477.573639
7173.048673	1.542744	0.232675	1876.842407
7173.049571	0.821316	0.232675	2614.384277
7173.050523	0.096965	0.232675	2706.695312
7173.051434	0.090165	0.232675	2788.835449
7173.052331	0.090209	0.232675	2869.752686
7173.053222	0.090172	0.232675	2950.095947
7173.054165	0.090256	0.232675	3035.207764
7173.055072	0.090216	0.232675	3117.033691
7173.055961	0.090275	0.232675	3197.287842
7173.056895	0.090245	0.232675	3281.576904
7173.057802	0.090238	0.232675	3363.422852
7173.058707	0.090165	0.232675	3445.021973
7174.072791	1.073804	0.238758	474.621216
7174.073685	1.542261	0.238758	1853.402344
7174.074649	0.738658	0.238758	2565.468994
7174.075556	0.095120	0.238758	2651.742432
7174.076450	0.090198	0.238758	2732.379150
7174.077381	0.090319	0.238758	2816.465820
7174.078287	0.090190	0.238758	2898.178467
7174.079207	0.090300	0.238758	2981.254639
7174.080096	0.090234	0.238758	3061.472900
7174.081040	0.090304	0.238758	3146.719727
7174.081941	0.090264	0.238758	3228.047363
7174.082858	0.090278	0.238758	3310.832520
7174.083746	0.090205	0.238758	3390.934570
7175.084537	1.119426	0.231684	531.727478
7175.085452	1.544502	0.231684	1944.946777
7175.086348	0.755475	0.231684	2621.852295
7175.087297	0.095687	0.231684	2712.659424
7175.088204	0.090179	0.231684	2794.452148
7175.089129	0.090201	0.231684	2877.888428
7175.090017	0.090223	0.231684	2958.006836
7175.090952	0.090242	0.231684	3042.382812
7175.091863	0.090256	0.231684	3124.606445
7175.092785	0.090176	0.231684	3207.748535
7175.093677	0.090154	0.231684	3288.165771
7175.094648	0.090205	0.231684	3375.754883
7175.095555	0.090242	0.231684	3457.604004
7176.108016	1.098384	0.240804	520.633911
7176.108957	1.545458	0.240804	1974.909668
7176.109896	0.658301	0.240804	2593.054199
7176.110784	0.093900	0.240804	2676.437500
7176.111734	0.090150	0.240804	2762.080078
7176.112669	0.090267	0.240804	2846.479980
7176.113564	0.090315	0.240804	2927.311768
7176.114482	0.090223	0.240804	3010.136719
7176.115424	0.090238	0.240804	3095.140869
7176.116341	0.090289	0.240804	3177.936035
7176.117239	0.090216	0.240804	3258.949951
7176.118182	0.090220	0.240804	3344.027100
7176.119112	0.090183	0.240804	3427.897461
7177.120206	1.070142	0.237336	473.002563
7177.121102	1.541741	0.237336	1854.402222
7177.122086	0.721835	0.237336	2564.687500
7177.123020	0.094167	0.237336	2652.639893
7177.123922	0.090066	0.237336	2733.879395
7177.124850	0.090256	0.237336	2817.637207
7177.125780	0.090190	0.237336	2901.514404
7177.126699	0.090282	0.237336	2984.483643
7177.127594	0.090245	0.237336	3065.253174
7177.128534	0.090234	0.237336	3150.073486
7177.129467	0.090245	0.237336	3234.272461
7177.130368	0.090297	0.237336	3315.629639
7177.131271	0.090311	0.237336	3397.180664
7178.141131	1.064487	0.245501	466.245392
7178.142070	1.543704	0.245501	1915.783081
7178.143031	0.678098	0.245501	2567.435547
7178.143948	0.093600	0.245501	2653.266602
7178.144839	0.090070	0.245501	2733.518555
7178.145798	0.090260	0.245501	2820.077881
7178.146733	0.090227	0.245501	2904.440186
7178.147634	0.090227	0.245501	2985.734863
7178.148561	0.090161	0.245501	3069.314209
7178.149496	0.090227	0.245501	3153.676514
7178.150419	0.090223	0.245501	3236.952637
7178.151309	0.090201	0.245501	3317.231934
7178.152246	0.090242	0.245501	3401.788330
7179.156953	1.065883	0.238113	471.120087
7179.157850	1.541902	0.238113	1854.206055
7179.158788	0.792327	0.238113	2597.408447
7179.159729	0.095665	0.238113	2687.429443
7179.160647	0.090092	0.238113	2770.133545
7179.161538	0.090227	0.238113	2850.525879
7179.162476	0.090234	0.238113	2935.165771
7179.163412	0.090099	0.238113	3019.498291
7179.164311	0.090161	0.238113	3100.553223
7179.165238	0.090216	0.238113	3184.183594
7179.166168	0.090209	0.238113	3268.077637
7179.167093	0.090209	0.238113	3351.520752
7179.167994	0.090161	0.238113	3432.755859
7180.175886	1.098582	0.242584	555.882263
7180.176795	1.545476	0.242584	1960.719971
7180.177709	0.695563	0.242584	2596.464355
7180.178600	0.094559	0.242584	2680.716797
7180.179545	0.090319	0.242584	2766.067871
7180.180442	0.090231	0.242584	2847.004883
7180.181349	0.090278	0.242584	2928.887207
7180.182241	0.090304	0.242584	3009.438232
7180.183186	0.090297	0.242584	3094.768555
7180.184086	0.090234	0.242584	3175.979492
7180.184976	0.090238	0.242584	3256.291260
7180.185923	0.090278	0.242584	3341.784912
7180.186823	0.090231	0.242584	3422.992676
7181.194700	1.064601	0.239382	466.295166
7181.195591	1.541228	0.239382	1839.529297
7181.196567	0.737336	0.239382	2559.169678
7181.197480	0.095098	0.239382	2645.993896
7181.198377	0.090209	0.239382	2726.911133
7181.199267	0.090293	0.239382	2807.271973
7181.200212	0.090231	0.239382	2892.540039
7181.201120	0.090194	0.239382	2974.436279
7181.202034	0.090209	0.239382	3056.886963
7181.202931	0.090231	0.239382	3137.823975
7181.203889	0.090234	0.239382	3224.268555
7181.204795	0.090150	0.239382	3305.944580
7181.205683	0.090209	0.239382	3386.050049
7182.207964	1.084409	0.242520	487.984161
7182.208862	1.542477	0.242520	1873.128418
7182.209817	0.762532	0.242520	2601.346191
7182.210723	0.095376	0.242520	2687.756836
7182.211642	0.090135	0.242520	2770.591309
7182.212529	0.090260	0.242520	2850.651855
7182.213466	0.090223	0.242520	2935.191162
7182.214370	0.090201	0.242520	3016.733154
7182.215294	0.090157	0.242520	3100.038574
7182.216183	0.090245	0.242520	3180.266602
7182.217143	0.090150	0.242520	3266.810791
7182.218045	0.090209	0.242520	3348.179199
7182.218933	0.090150	0.242520	3428.232422
7183.233543	1.098559	0.236115	548.181213
7183.234463	1.545341	0.236115	1969.894531
7183.235416	0.636855	0.236115	2576.817871
7183.236309	0.093409	0.236115	2660.232422
7183.237260	0.090165	0.236115	2745.979248
7183.238180	0.090168	0.236115	2828.934326
7183.239105	0.090176	0.236115	2912.346924
7183.239994	0.090205	0.236115	2992.539307
7183.240935	0.090143	0.236115	3077.363770
7183.241853	0.090183	0.236115	3160.151855
7183.242747	0.090238	0.236115	3240.824707
7183.243682	0.090201	0.236115	3325.163086
7183.244598	0.090245	0.236115	3407.827881
7184.241133	1.108960	0.239414	518.993225
7184.242045	1.543997	0.239414	1927.118164
7184.242949	0.759338	0.239414	2613.560059
7184.243871	0.095347	0.239414	2701.469727
7184.244821	0.090135	0.239414	2787.098389
7184.245743	0.090249	0.239414	2870.308105
7184.246633	0.090194	0.239414	2950.580811
7184.247576	0.090220	0.239414	3035.657959
7184.248506	0.090201	0.239414	3119.545166
7184.249397	0.090304	0.239414	3200.006104
7184.250319	0.090198	0.239414	3283.168457
7184.251243	0.090242	0.239414	3366.551758
7184.252160	0.090289	0.239414	3449.347168
7185.273292	1.071562	0.227986	470.415894
7185.274229	1.542184	0.227986	1915.442017
7185.275193	0.680369	0.227986	2571.317383
7185.276113	0.093523	0.227986	2657.358398
7185.277005	0.090183	0.227986	2737.801758
7185.277956	0.090117	0.227986	2823.503174
7185.278885	0.090212	0.227986	2907.310547
7185.279781	0.090249	0.227986	2988.173584
7185.280700	0.090205	0.227986	3071.072021
7185.281632	0.090139	0.227986	3155.081787
7185.282565	0.090161	0.227986	3239.202148
7185.283463	0.090245	0.227986	3320.242432
7185.284381	0.090249	0.227986	3403.091064
7186.274801	1.093004	0.235648	513.711975
7186.275716	1.543110	0.235648	1925.657959
7186.276613	0.763378	0.235648	2610.407715
7186.277537	0.096189	0.235648	2699.286377
7186.278485	0.090194	0.235648	2784.790283
7186.279405	0.090209	0.235648	2867.782227
7186.280294	0.090238	0.235648	2948.003906
7186.281245	0.090194	0.235648	3033.778564
7186.282175	0.090308	0.235648	3117.764648
7186.283092	0.090267	0.235648	3200.539795
7186.283984	0.090234	0.235648	3281.028809
7186.284912	0.090234	0.235648	3364.766357
7186.285838	0.090319	0.235648	3448.401367
7187.311583	1.085365	0.231643	498.182556
7187.312512	1.543107	0.231643	1931.728760
7187.313436	0.733330	0.231643	2609.325684
7187.314324	0.095361	0.231643	2694.006592
7187.315261	0.090139	0.231643	2778.467041
7187.316166	0.090187	0.231643	2860.086182
7187.317070	0.090223	0.231643	2941.648193
7187.317958	0.090198	0.231643	3021.743896
7187.318907	0.090304	0.231643	3107.442383
7187.319809	0.090260	0.231643	3188.856934
7187.320709	0.090201	0.231643	3270.038086
7187.321621	0.090190	0.231643	3352.291748
7187.322535	0.090330	0.231643	3434.853027
7188.310482	1.074759	0.223837	469.669891
7188.311386	1.540994	0.223837	1862.728271
7188.312368	0.700569	0.223837	2550.687012
7188.313275	0.094288	0.223837	2636.206543
7188.314172	0.090172	0.223837	2717.090820
7188.315108	0.090253	0.223837	2801.567383
7188.316013	0.090359	0.223837	2883.342285
7188.316918	0.090139	0.223837	2964.918213
7188.317809	0.090249	0.223837	3045.330078
7188.318746	0.090238	0.223837	3129.883057
7188.319648	0.090300	0.223837	3211.333984
7188.320541	0.090176	0.223837	3291.860840
7188.321445	0.090245	0.223837	3373.442627
7189.345794	1.097424	0.244204	538.835388
7189.346711	1.544202	0.244204	1954.868408
7189.347644	0.677150	0.244204	2586.648926
7189.348541	0.094072	0.244204	2671.031738
7189.349502	0.090220	0.244204	2757.732910
7189.350407	0.090205	0.244204	2839.368408
7189.351319	0.090260	0.244204	2921.685547
7189.352206	0.090297	0.244204	3001.778564
7189.353154	0.090260	0.244204	3087.344971
7189.354045	0.090223	0.244204	3167.733887
7189.354932	0.090238	0.244204	3247.775146
7189.355876	0.090275	0.244204	3332.994385
7189.356782	0.090297	0.244204	3414.803223
7190.347225	1.083834	0.222189	488.809204
7190.348123	1.541902	0.222189	1873.437012
7190.349081	0.752271	0.222189	2594.112305
7190.349988	0.094852	0.222189	2680.143311
7190.350904	0.090216	0.222189	2762.781250
7190.351800	0.090278	0.222189	2843.670654
7190.352758	0.090319	0.222189	2930.195801
7190.353666	0.090190	0.222189	3012.088623
7190.354585	0.090238	0.222189	3095.017334
7190.355484	0.090267	0.222189	3176.167725
7190.356426	0.090194	0.222189	3261.130615
7190.357324	0.090216	0.222189	3342.144531
7190.358211	0.090278	0.222189	3422.221436
7191.378393	1.084753	0.248893	481.630493
7191.379290	1.541173	0.248893	1864.062744
7191.380274	0.695215	0.248893	2548.154053
7191.381200	0.093582	0.248893	2634.810547
7191.382093	0.090212	0.248893	2715.370117
7191.383011	0.090176	0.248893	2798.151367
7191.383950	0.090176	0.248893	2882.826416
7191.384877	0.090201	0.248893	2966.443115
7191.385777	0.090297	0.248893	3047.709961
7191.386706	0.090227	0.248893	3131.531006
7191.387632	0.090286	0.248893	3215.135498
7191.388550	0.090216	0.248893	3297.953857
7191.389444	0.090223	0.248893	3378.613525
7192.386507	1.074423	0.219804	471.671509
7192.387487	1.543403	0.219804	1984.206665
7192.388424	0.654111	0.219804	2597.108887
7192.389313	0.093724	0.219804	2680.429932
7192.390235	0.090154	0.219804	2763.551758
7192.391167	0.090103	0.219804	2847.527344
7192.392086	0.090267	0.219804	2930.482910
7192.392978	0.090205	0.219804	3010.945801
7192.393913	0.090205	0.219804	3095.287598
7192.394867	0.090227	0.219804	3181.364258
7192.395767	0.090212	0.219804	3262.555420
7192.396695	0.090201	0.219804	3346.262451
7192.397632	0.090220	0.219804	3430.798340
7193.410509	1.065824	0.251108	467.896698
7193.411456	1.542733	0.251108	1928.865112
7193.412375	0.740922	0.251108	2609.771973
7193.413272	0.095343	0.251108	2695.294678
7193.414162	0.090161	0.251108	2775.538086
7193.415120	0.090253	0.251108	2862.000244
7193.416029	0.090198	0.251108	2943.989990
7193.416923	0.090311	0.251108	3024.728271
7193.417853	0.090227	0.251108	3108.639404
7193.418751	0.090267	0.251108	3189.699463
7193.419649	0.090293	0.251108	3270.782471
7193.420536	0.090231	0.251108	3350.817139
7193.421485	0.090341	0.251108	3436.550293
7194.425294	1.076188	0.223208	473.522614
7194.426200	1.541096	0.223208	1869.755737
7194.427100	0.827033	0.223208	2614.084961
7194.428020	0.098434	0.223208	2704.644043
7194.428943	0.090201	0.223208	2787.899902
7194.429844	0.090161	0.223208	2869.135010
7194.430729	0.090242	0.223208	2948.999023
7194.431664	0.090278	0.223208	3033.409180
7194.432578	0.090114	0.223208	3115.772949
7194.433481	0.090234	0.223208	3197.254639
7194.434372	0.090201	0.223208	3277.624023
7194.435301	0.090315	0.223208	3361.526611
7194.436219	0.090161	0.223208	3444.294434
7195.442645	1.083611	0.253372	483.290405
7195.443551	1.542012	0.253372	1880.353027
7195.444447	0.818873	0.253372	2614.063477
7195.445381	0.096797	0.253372	2704.471680
7195.446282	0.090128	0.253372	2785.677246
7195.447202	0.090359	0.253372	2868.807373
7195.448091	0.090242	0.253372	2949.032227
7195.449026	0.090275	0.253372	3033.438965
7195.449930	0.090249	0.253372	3115.024170
7195.450846	0.090234	0.253372	3197.678955
7195.451747	0.090271	0.253372	3279.013184
7195.452718	0.090216	0.253372	3366.613037
7195.453629	0.090194	0.253372	3448.779785
7196.464587	1.066882	0.223023	465.160675
7196.465530	1.541338	0.223023	1918.642212
7196.466459	0.728005	0.223023	2594.959229
7196.467381	0.094259	0.223023	2681.865967
7196.468281	0.090223	0.223023	2763.066895
7196.469236	0.090245	0.223023	2849.251221
7196.470139	0.090187	0.223023	2930.689941
7196.471065	0.090267	0.223023	3014.277588
7196.471960	0.090253	0.223023	3095.053711
7196.472901	0.090245	0.223023	3179.974609
7196.473821	0.090205	0.223023	3262.963379
7196.474744	0.090304	0.223023	3346.313965
7196.475634	0.090245	0.223023	3426.632324
7197.474779	1.078520	0.253670	479.941589
7197.475675	1.541140	0.253670	1860.803223
7197.476649	0.729822	0.253670	2571.649658
7197.477574	0.093977	0.253670	2658.578369
7197.478475	0.090154	0.253670	2739.806885
7197.479380	0.090271	0.253670	2821.502197
7197.480314	0.090289	0.253670	2905.832520
7197.481227	0.090256	0.253670	2988.236572
7197.482117	0.090278	0.253670	3068.584229
7197.483066	0.090260	0.253670	3154.240967
7197.484008	0.090267	0.253670	3239.272705
7197.484899	0.090275	0.253670	3319.707520
7197.485809	0.090231	0.253670	3401.817383
7198.503417	1.105605	0.221355	534.007446
7198.504346	1.544224	0.221355	1968.591064
7198.505283	0.664197	0.221355	2590.943359
7198.506180	0.093933	0.221355	2675.201416
7198.507131	0.090216	0.221355	2760.996826
7198.508066	0.090154	0.221355	2845.290527
7198.508965	0.090308	0.221355	2926.477051
7198.509886	0.090253	0.221355	3009.599854
7198.510829	0.090231	0.221355	3094.687500
7198.511756	0.090286	0.221355	3178.382324
7198.512652	0.090319	0.221355	3259.307861
7198.513581	0.090278	0.221355	3343.176514
7198.514489	0.090278	0.221355	3425.149170
7199.507945	1.107682	0.251604	515.072083
7199.508865	1.542942	0.251604	1934.578613
7199.509767	0.760053	0.251604	2620.145996
7199.510713	0.095457	0.251604	2710.447998
7199.511608	0.090176	0.251604	2791.155273
7199.512509	0.090286	0.251604	2872.502686
7199.513399	0.090264	0.251604	2952.837402
7199.514340	0.090352	0.251604	3037.858154
7199.515247	0.090278	0.251604	3119.740479
7199.516150	0.090238	0.251604	3201.225342
7199.517063	0.090326	0.251604	3283.692871
7199.517975	0.090289	0.251604	3366.036621
7199.518881	0.090300	0.251604	3447.848633
7200.541201	1.139744	0.214930	574.430847
7200.542118	1.544663	0.214930	1990.886963
7200.543032	0.681328	0.214930	2613.620850
7200.543921	0.094252	0.214930	2697.410645
7200.544884	0.090172	0.214930	2784.246338
7200.545791	0.090201	0.214930	2866.059082
7200.546715	0.090146	0.214930	2949.354492
7200.547607	0.090073	0.214930	3029.699707
7200.548566	0.090150	0.214930	3116.153809
7200.549459	0.090073	0.214930	3196.589111
7200.550350	0.090117	0.214930	3276.883545
7200.551301	0.090282	0.214930	3362.741699
7200.552215	0.090154	0.214930	3445.142334
7201.542625	1.074734	0.250843	496.527039
7201.543535	1.542264	0.250843	1899.987793
7201.544467	0.759635	0.250843	2607.967773
7201.545409	0.094149	0.250843	2696.656250
7201.546298	0.090095	0.250843	2776.750977
7201.547226	0.090161	0.250843	2860.420410
7201.548119	0.090179	0.250843	2940.950684
7201.549074	0.090029	0.250843	3026.928711
7201.549993	0.090125	0.250843	3109.753174
7201.550885	0.090165	0.250843	3190.180176
7201.551826	0.090092	0.250843	3274.956299
7201.552747	0.090135	0.250843	3357.971191
7201.553665	0.090157	0.250843	3440.735840
7202.576889	1.115684	0.220026	531.065369
7202.577788	1.543271	0.220026	1918.466309
7202.578700	0.759489	0.220026	2611.119873
7202.579651	0.093922	0.220026	2700.439697
7202.580590	0.090062	0.220026	2785.008057
7202.581483	0.090143	0.220026	2865.505615
7202.582401	0.090081	0.220026	2948.199463
7202.583341	0.090110	0.220026	3032.902832
7202.584279	0.090135	0.220026	3117.449951
7202.585183	0.090117	0.220026	3198.916016
7202.586108	0.090022	0.220026	3282.186279
7202.587046	0.090205	0.220026	3366.798584
7202.587966	0.090121	0.220026	3449.709717
7203.578323	1.073375	0.250238	476.578644
7203.579222	1.540525	0.250238	1861.510498
7203.580204	0.720330	0.250238	2568.874023
7203.581116	0.094237	0.250238	2654.818115
7203.582013	0.090190	0.250238	2735.718994
7203.582932	0.090168	0.250238	2818.583740
7203.583881	0.090212	0.250238	2904.195312
7203.584796	0.090231	0.250238	2986.756348
7203.585686	0.090209	0.250238	3067.042236
7203.586637	0.090179	0.250238	3152.802979
7203.587577	0.090231	0.250238	3237.619873
7203.588478	0.090209	0.250238	3318.897949
7203.589404	0.090220	0.250238	3402.441406
7204.613624	1.130852	0.217154	547.332397
7204.614537	1.544469	0.217154	1957.432617
7204.615449	0.730551	0.217154	2623.694824
7204.616337	0.095537	0.217154	2708.531738
7204.617287	0.090271	0.217154	2794.289062
7204.618192	0.090194	0.217154	2875.914795
7204.619094	0.090256	0.217154	2957.325928
7204.620023	0.090253	0.217154	3041.170654
7204.620925	0.090315	0.217154	3122.634766
7204.621817	0.090168	0.217154	3203.064941
7204.622709	0.090209	0.217154	3283.531250
7204.623644	0.090293	0.217154	3367.955078
7204.624551	0.090216	0.217154	3449.781006
7205.614076	1.119668	0.247116	535.201233
7205.614993	1.544026	0.247116	1951.072998
7205.615905	0.735648	0.247116	2621.984131
7205.616799	0.095424	0.247116	2707.292725
7205.617747	0.090161	0.247116	2792.765381
7205.618651	0.090168	0.247116	2874.277588
7205.619544	0.090209	0.247116	2954.833984
7205.620480	0.090275	0.247116	3039.331055
7205.621389	0.090267	0.247116	3121.384033
7205.622298	0.090212	0.247116	3203.387207
7205.623193	0.090168	0.247116	3284.087891
7205.624138	0.090190	0.247116	3369.317871
7205.625044	0.090179	0.247116	3451.020508
7206.649295	1.071603	0.217174	468.290375
7206.650197	1.541283	0.217174	1858.527588
7206.651168	0.716781	0.217174	2554.521973
7206.652079	0.094460	0.217174	2640.575439
7206.652999	0.090190	0.217174	2723.550537
7206.653896	0.090234	0.217174	2804.490723
7206.654845	0.090238	0.217174	2890.126709
7206.655766	0.090161	0.217174	2973.165039
7206.656690	0.090311	0.217174	3056.612549
7206.657584	0.090183	0.217174	3137.236328
7206.658537	0.090135	0.217174	3223.135498
7206.659461	0.090168	0.217174	3306.451172
7206.660352	0.090183	0.217174	3386.804199
7207.650246	1.065505	0.248337	463.494843
7207.651205	1.542946	0.248337	1943.179565
7207.652131	0.714745	0.248337	2605.033203
7207.653049	0.094083	0.248337	2691.401611
7207.653937	0.090143	0.248337	2771.448486
7207.654889	0.090220	0.248337	2857.337646
7207.655805	0.090249	0.248337	2940.005859
7207.656698	0.090308	0.248337	3020.650635
7207.657620	0.090194	0.248337	3103.809570
7207.658540	0.090172	0.248337	3186.767822
7207.659457	0.090227	0.248337	3269.506104
7207.660379	0.090245	0.248337	3352.712402
7207.661272	0.090238	0.248337	3433.294922
7208.683984	1.070471	0.219333	474.218719
7208.684877	1.541364	0.219333	1850.656494
7208.685859	0.742321	0.219333	2579.615234
7208.686807	0.093655	0.219333	2668.399902
7208.687706	0.090242	0.219333	2749.527100
7208.688623	0.090154	0.219333	2832.198242
7208.689543	0.090187	0.219333	2915.170166
7208.690479	0.090227	0.219333	2999.622803
7208.691378	0.090198	0.219333	3080.710693
7208.692308	0.090249	0.219333	3164.642334
7208.693251	0.090187	0.219333	3249.688477
7208.694176	0.090231	0.219333	3333.151855
7208.695068	0.090154	0.219333	3413.569092
7209.686989	1.069860	0.252800	468.598511
7209.687906	1.541744	0.252800	1882.378052
7209.688814	0.797893	0.252800	2606.864990
7209.689751	0.095947	0.252800	2696.767578
7209.690654	0.090179	0.252800	2778.199707
7209.691553	0.090176	0.252800	2859.267822
7209.692440	0.090234	0.252800	2939.305664
7209.693388	0.090311	0.252800	3024.920654
7209.694289	0.090231	0.252800	3106.218506
7209.695183	0.090216	0.252800	3186.871582
7209.696109	0.090242	0.252800	3270.435303
7209.697012	0.090220	0.252800	3351.903809
7209.697919	0.090227	0.252800	3433.739746
7210.717662	1.087500	0.222253	491.549988
7210.718557	1.542173	0.222253	1871.794678
7210.719454	0.820895	0.222253	2608.137207
7210.720399	0.097592	0.222253	2700.361328
7210.721307	0.090092	0.222253	2782.164551
7210.722219	0.090227	0.222253	2864.451660
7210.723113	0.090286	0.222253	2945.166992
7210.724055	0.090253	0.222253	3030.185059
7210.724960	0.090176	0.222253	3111.794189
7210.725889	0.090209	0.222253	3195.598145
7210.726785	0.090286	0.222253	3276.494141
7210.727740	0.090179	0.222253	3362.615479
7210.728632	0.090227	0.222253	3443.097900
7211.724308	1.150188	0.252478	579.694763
7211.725219	1.545505	0.252478	1987.650146
7211.726148	0.677999	0.252478	2617.511475
7211.727034	0.094083	0.252478	2700.869141
7211.727995	0.090099	0.252478	2787.454102
7211.728910	0.090128	0.252478	2869.921387
7211.729806	0.090198	0.252478	2950.738525
7211.730731	0.090154	0.252478	3034.130859
7211.731641	0.090143	0.252478	3116.160889
7211.732558	0.090245	0.252478	3198.915771
7211.733455	0.090187	0.252478	3279.813232
7211.734405	0.090190	0.252478	3365.494141
7211.735304	0.090194	0.252478	3446.578613
7212.751333	1.081945	0.225545	482.547272
7212.752251	1.544703	0.225545	1900.584961
7212.753197	0.731041	0.225545	2592.149902
7212.754098	0.095021	0.225545	2677.763672
7212.755023	0.090172	0.225545	2761.172852
7212.755954	0.090146	0.225545	2845.099121
7212.756873	0.090238	0.225545	2928.027832
7212.757764	0.090183	0.225545	3008.380859
7212.758710	0.090212	0.225545	3093.721680
7212.759646	0.090205	0.225545	3178.153564
7212.760539	0.090245	0.225545	3258.742676
7212.761466	0.090278	0.225545	3342.430664
7212.762409	0.090260	0.225545	3427.545898
7213.763042	1.082443	0.252168	491.428955
7213.763941	1.543821	0.252168	1879.323853
7213.764882	0.781172	0.252168	2614.406494
7213.765817	0.095065	0.252168	2703.291992
7213.766747	0.090183	0.252168	2787.162354
7213.767634	0.090183	0.252168	2867.154785
7213.768550	0.090201	0.252168	2949.779297
7213.769483	0.090205	0.252168	3033.940674
7213.770395	0.090198	0.252168	3116.200928
7213.771286	0.090157	0.252168	3196.531250
7213.772233	0.090081	0.252168	3281.837646
7213.773167	0.090238	0.252168	3366.119873
7213.774066	0.090176	0.252168	3447.187988
7214.783438	1.072328	0.224014	472.896576
7214.784346	1.543297	0.224014	1874.210449
7214.785246	0.816244	0.224014	2608.830078
7214.786200	0.095566	0.224014	2700.000488
7214.787105	0.090172	0.224014	2781.606201
7214.787992	0.090249	0.224014	2861.656982
7214.788918	0.090315	0.224014	2945.288574
7214.789833	0.090249	0.224014	3027.866455
7214.790742	0.090110	0.224014	3109.776367
7214.791640	0.090275	0.224014	3190.843018
7214.792567	0.090289	0.224014	3274.541260
7214.793465	0.090220	0.224014	3355.558594
7214.794367	0.090212	0.224014	3436.930176
7215.802390	1.126483	0.249819	575.632874
7215.803296	1.546304	0.249819	1976.583984
7215.804206	0.699792	0.249819	2613.395020
7215.805096	0.094735	0.249819	2697.709229
7215.806051	0.090326	0.249819	2783.970459
7215.806964	0.090267	0.249819	2866.384521
7215.807869	0.090242	0.249819	2948.053223
7215.808788	0.090234	0.249819	3030.978516
7215.809711	0.090308	0.249819	3114.332520
7215.810623	0.090143	0.249819	3196.542725
7215.811515	0.090293	0.249819	3277.083984
7215.812463	0.090300	0.249819	3362.688721
7215.813353	0.090271	0.249819	3443.029785
7216.815565	1.073906	0.226379	470.370911
7216.816510	1.544927	0.226379	1930.326660
7216.817436	0.731100	0.226379	2607.325195
7216.818325	0.095292	0.226379	2692.039551
7216.819265	0.090212	0.226379	2776.839111
7216.820181	0.090293	0.226379	2859.547363
7216.821086	0.090201	0.226379	2941.179687
7216.821972	0.090223	0.226379	3021.117676
7216.822921	0.090275	0.226379	3106.788330
7216.823828	0.090212	0.226379	3188.611084
7216.824731	0.090179	0.226379	3270.043213
7216.825620	0.090223	0.226379	3350.251709
7216.826565	0.090249	0.226379	3435.537109
7217.841110	1.069918	0.252704	478.253479
7217.842004	1.542861	0.252704	1857.571533
7217.842953	0.770533	0.252704	2588.807861
7217.843863	0.095336	0.252704	2675.563232
7217.844771	0.090051	0.252704	2757.329834
7217.845670	0.090198	0.252704	2838.417725
7217.846619	0.090212	0.252704	2924.029297
7217.847530	0.090157	0.252704	3006.162842
7217.848450	0.090168	0.252704	3089.117920
7217.849337	0.090201	0.252704	3169.126465
7217.850291	0.090234	0.252704	3255.209961
7217.851186	0.090172	0.252704	3335.914062
7217.852098	0.090249	0.252704	3418.221191
7218.847711	1.081857	0.227784	484.671814
7218.848614	1.543187	0.227784	1878.169922
7218.849513	0.804510	0.227784	2601.424805
7218.850479	0.095087	0.227784	2693.278564
7218.851400	0.090059	0.227784	2776.222656
7218.852289	0.090084	0.227784	2856.307617
7218.853233	0.090143	0.227784	2941.402344
7218.854149	0.090132	0.227784	3023.963135
7218.855076	0.090114	0.227784	3107.498291
7218.855969	0.090168	0.227784	3188.018799
7218.856912	0.090209	0.227784	3273.085693
7218.857819	0.090172	0.227784	3354.871826
7218.858734	0.090139	0.227784	3437.349121
7219.879884	1.071647	0.247841	474.739532
7219.880859	1.544286	0.247841	1980.418213
7219.881791	0.683456	0.247841	2617.398926
7219.882680	0.093875	0.247841	2700.853271
7219.883602	0.090146	0.247841	2783.968262
7219.884536	0.090183	0.247841	2868.199219
7219.885466	0.090110	0.247841	2952.001465
7219.886382	0.090223	0.247841	3034.645996
7219.887274	0.090176	0.247841	3115.082764
7219.888223	0.090161	0.247841	3200.645752
7219.889154	0.090106	0.247841	3284.534668
7219.890051	0.090282	0.247841	3365.517578
7219.890979	0.090073	0.247841	3449.105469
7220.882400	1.086357	0.227619	491.033539
7220.883300	1.543341	0.227619	1880.040527
7220.884228	0.794557	0.227619	2617.389404
7220.885174	0.095361	0.227619	2707.601318
7220.886095	0.090176	0.227619	2790.653320
7220.886982	0.090275	0.227619	2870.727051
7220.887910	0.090179	0.227619	2954.413574
7220.888850	0.090212	0.227619	3039.213135
7220.889761	0.090238	0.227619	3121.419922
7220.890649	0.090201	0.227619	3201.518799
7220.891603	0.090201	0.227619	3287.571045
7220.892540	0.090245	0.227619	3372.130859
7220.893437	0.090212	0.227619	3453.051270
7221.918692	1.094535	0.241549	495.824341
7221.919611	1.543909	0.241549	1914.676392
7221.920518	0.775184	0.241549	2617.768555
7221.921409	0.096508	0.241549	2703.756836
7221.922352	0.090139	0.241549	2788.758057
7221.923261	0.090143	0.241549	2870.697998
7221.924159	0.090165	0.241549	2951.666016
7221.925093	0.090194	0.241549	3035.907227
7221.925993	0.090168	0.241549	3117.058838
7221.926899	0.090117	0.241549	3198.705078
7221.927790	0.090187	0.241549	3279.061523
7221.928739	0.090209	0.241549	3364.669678
7221.929638	0.090135	0.241549	3445.701416
7222.917582	1.073057	0.231668	476.437164
7222.918538	1.544916	0.231668	1953.376587
7222.919462	0.704513	0.231668	2604.346436
7222.920372	0.094124	0.231668	2689.998779
7222.921264	0.090106	0.231668	2770.373535
7222.922205	0.090198	0.231668	2855.249512
7222.923108	0.090165	0.231668	2936.668213
7222.924007	0.090110	0.231668	3017.677002
7222.924893	0.090179	0.231668	3097.575928
7222.925841	0.090183	0.231668	3183.069580
7222.926734	0.090168	0.231668	3263.590088
7222.927628	0.090157	0.231668	3344.190918
7222.928552	0.090183	0.231668	3427.520020
7223.953379	1.079374	0.237904	492.194458
7223.954285	1.542334	0.237904	1889.549072
7223.955182	0.798867	0.237904	2606.132812
7223.956134	0.094834	0.237904	2696.414795
7223.957040	0.090216	0.237904	2778.150635
7223.957932	0.090249	0.237904	2858.652832
7223.958858	0.090223	0.237904	2942.199707
7223.959783	0.090304	0.237904	3025.730957
7223.960686	0.090194	0.237904	3107.176270
7223.961579	0.090267	0.237904	3187.784912
7223.962525	0.090154	0.237904	3273.070312
7223.963430	0.090212	0.237904	3354.712646
7223.964357	0.090286	0.237904	3438.407471
7224.954841	1.090492	0.232578	491.811829
7224.955737	1.541646	0.232578	1873.126221
7224.956725	0.690066	0.232578	2554.911377
7224.957652	0.093677	0.232578	2641.749756
7224.958545	0.090165	0.232578	2722.266846
7224.959488	0.090231	0.232578	2807.354492
7224.960387	0.090212	0.232578	2888.455566
7224.961302	0.090212	0.232578	2971.000000
7224.962200	0.090183	0.232578	3051.984375
7224.963148	0.090227	0.232578	3137.519531
7224.964066	0.090183	0.232578	3220.307617
7224.964962	0.090172	0.232578	3301.101807
7224.965880	0.090227	0.232578	3383.930176
7225.987554	1.077246	0.232038	496.610443
7225.988464	1.543041	0.232038	1900.777588
7225.989365	0.784244	0.232038	2607.381836
7225.990295	0.096500	0.232038	2697.126953
7225.991230	0.090081	0.232038	2781.352295
7225.992153	0.090161	0.232038	2864.571045
7225.993041	0.090227	0.232038	2944.692627
7225.993980	0.090139	0.232038	3029.333252
7225.994915	0.090242	0.232038	3113.709229
7225.995814	0.090264	0.232038	3194.856201
7225.996736	0.090125	0.232038	3277.950928
7225.997670	0.090179	0.232038	3362.178467
7225.998598	0.090227	0.232038	3445.909180
7226.992085	1.074899	0.235370	477.255035
7226.992987	1.542246	0.235370	1868.360962
7226.993953	0.750245	0.235370	2593.097900
7226.994878	0.094142	0.235370	2680.179199
7226.995800	0.090198	0.235370	2763.341553
7226.996696	0.090194	0.235370	2844.155518
7226.997638	0.090205	0.235370	2929.128662
7226.998564	0.090264	0.235370	3012.712891
7226.999485	0.090253	0.235370	3095.835693
7227.000376	0.090165	0.235370	3176.172607
7227.001325	0.090231	0.235370	3261.801514
7227.002255	0.090242	0.235370	3345.726318
7227.003155	0.090297	0.235370	3426.993164
7228.019660	1.068190	0.231064	473.208069
7228.020552	1.541104	0.231064	1847.872559
7228.021518	0.741182	0.231064	2563.854004
7228.022435	0.094940	0.231064	2650.914062
7228.023336	0.090059	0.231064	2732.056885
7228.024265	0.090242	0.231064	2815.891357
7228.025180	0.090300	0.231064	2898.516113
7228.026087	0.090223	0.231064	2980.348633
7228.026983	0.090198	0.231064	3061.165771
7228.027929	0.090308	0.231064	3146.596680
7228.028829	0.090176	0.231064	3227.754883
7228.029729	0.090139	0.231064	3308.880127
7228.030614	0.090209	0.231064	3388.714844
7229.029845	1.068310	0.235011	473.261566
7229.030747	1.542187	0.235011	1864.314697
7229.031680	0.795670	0.235011	2606.674805
7229.032619	0.094768	0.235011	2695.662109
7229.033523	0.090037	0.235011	2777.055176
7229.034413	0.090271	0.235011	2857.396484
7229.035363	0.090256	0.235011	2943.140137
7229.036280	0.090220	0.235011	3025.871582
7229.037200	0.090176	0.235011	3108.833252
7229.038090	0.090216	0.235011	3189.125488
7229.039038	0.090256	0.235011	3274.688477
7229.039932	0.090139	0.235011	3355.272949
7229.040823	0.090216	0.235011	3435.655518
7230.053845	1.079041	0.231772	480.173035
7230.054738	1.541539	0.231772	1856.767578
7230.055717	0.734751	0.231772	2576.088867
7230.056616	0.095229	0.231772	2661.700195
7230.057534	0.090168	0.231772	2744.474854
7230.058426	0.090223	0.231772	2824.954102
7230.059364	0.090187	0.231772	2909.549316
7230.060286	0.090253	0.231772	2992.762207
7230.061188	0.090264	0.231772	3074.179932
7230.062118	0.090179	0.231772	3158.046875
7230.063044	0.090260	0.231772	3241.627686
7230.063962	0.090205	0.231772	3324.436035
7230.064857	0.090267	0.231772	3405.225342
7231.067632	1.091777	0.224505	517.502441
7231.068540	1.544315	0.224505	1919.740601
7231.069481	0.726746	0.224505	2603.608154
7231.070421	0.093757	0.224505	2691.739990
7231.071342	0.090132	0.224505	2774.751465
7231.072232	0.090212	0.224505	2855.040527
7231.073185	0.090223	0.224505	2941.023437
7231.074123	0.090194	0.224505	3025.625488
7231.075021	0.090179	0.224505	3106.606689
7231.075946	0.090154	0.224505	3189.999023
7231.076877	0.090146	0.224505	3273.925293
7231.077798	0.090205	0.224505	3357.004150
7231.078687	0.090231	0.224505	3437.219238
7232.088537	1.080612	0.230673	475.469086
7232.089468	1.541883	0.230673	1910.962646
7232.090441	0.693896	0.230673	2586.124023
7232.091356	0.093761	0.230673	2671.915283
7232.092245	0.090146	0.230673	2752.055420
7232.093163	0.090253	0.230673	2834.907471
7232.094081	0.090319	0.230673	2917.819824
7232.095017	0.090183	0.230673	3002.231201
7232.095915	0.090209	0.230673	3083.238770
7232.096831	0.090132	0.230673	3165.799561
7232.097765	0.090143	0.230673	3249.992920
7232.098680	0.090304	0.230673	3332.621094
7232.099567	0.090220	0.230673	3412.645996
7233.104342	1.081703	0.229182	477.031006
7233.105259	1.542707	0.229182	1891.693726
7233.106171	0.785010	0.229182	2607.622559
7233.107106	0.096877	0.229182	2698.202881
7233.108010	0.090308	0.229182	2779.841064
7233.108912	0.090238	0.229182	2861.235840
7233.109810	0.090183	0.229182	2942.220215
7233.110753	0.090234	0.229182	3027.311279
7233.111656	0.090355	0.229182	3108.902100
7233.112553	0.090194	0.229182	3189.806152
7233.113440	0.090245	0.229182	3269.853760
7233.114370	0.090315	0.229182	3353.846680
7233.115275	0.090168	0.229182	3435.449219
7234.123722	1.068893	0.228945	467.106171
7234.124676	1.544366	0.228945	1940.431763
7234.125595	0.729404	0.228945	2610.754395
7234.126483	0.095295	0.228945	2695.376709
7234.127404	0.090205	0.228945	2778.455566
7234.128333	0.090238	0.228945	2862.286621
7234.129239	0.090205	0.228945	2944.012451
7234.130156	0.090245	0.228945	3026.767334
7234.131044	0.090322	0.228945	3106.973389
7234.132005	0.090264	0.228945	3193.716797
7234.132904	0.090249	0.228945	3274.850586
7234.133797	0.090245	0.228945	3355.439697
7234.134733	0.090242	0.228945	3439.906006
7235.141104	1.084255	0.227172	512.852844
7235.142043	1.545179	0.227172	1963.776367
7235.142957	0.701898	0.227172	2605.311279
7235.143845	0.094684	0.227172	2689.390625
7235.144757	0.090044	0.227172	2771.510742
7235.145693	0.090172	0.227172	2855.911865
7235.146618	0.090183	0.227172	2939.331299
7235.147506	0.090234	0.227172	3019.459473
7235.148465	0.090121	0.227172	3105.885254
7235.149380	0.090190	0.227172	3188.409424
7235.150295	0.090227	0.227172	3270.967285
7235.151181	0.090242	0.227172	3350.921387
7235.152126	0.090271	0.227172	3436.227539
7236.159472	1.086032	0.232630	508.262756
7236.160387	1.543989	0.232630	1921.012939
7236.161288	0.767893	0.232630	2612.884521
7236.162228	0.094977	0.232630	2702.162598
7236.163161	0.090128	0.232630	2786.252197
7236.164078	0.090253	0.232630	2869.013916
7236.164967	0.090260	0.232630	2949.255127
7236.165925	0.090183	0.232630	3035.650635
7236.166861	0.090154	0.232630	3120.034668
7236.167753	0.090260	0.232630	3200.546631
7236.168680	0.090117	0.232630	3284.085205
7236.169617	0.090205	0.232630	3368.607422
7236.170521	0.090183	0.232630	3450.133057
7237.175804	1.100336	0.232437	522.659485
7237.176718	1.544084	0.232437	1933.952637
7237.177645	0.716199	0.232437	2597.868896
7237.178543	0.094728	0.232437	2682.934570
7237.179495	0.090135	0.232437	2768.743652
7237.180434	0.090205	0.232437	2853.446289
7237.181334	0.090253	0.232437	2934.673828
7237.182247	0.090168	0.232437	3016.997559
7237.183176	0.090168	0.232437	3100.764160
7237.184105	0.090198	0.232437	3184.557861
7237.184991	0.090146	0.232437	3264.427734
7237.185918	0.090150	0.232437	3347.996826
7237.186841	0.090245	0.232437	3431.293213
7238.196737	1.103005	0.234766	543.781677
7238.197657	1.545011	0.234766	1965.191895
7238.198567	0.704363	0.234766	2606.162109
7238.199456	0.094786	0.234766	2690.427246
7238.200411	0.090264	0.234766	2776.629150
7238.201315	0.090117	0.234766	2858.095215
7238.202213	0.090198	0.234766	2939.092773
7238.203107	0.090179	0.234766	3019.713135
7238.204055	0.090260	0.234766	3105.279541
7238.204956	0.090187	0.234766	3186.537842
7238.205854	0.090201	0.234766	3267.538818
7238.206788	0.090355	0.234766	3351.930664
7238.207690	0.090245	0.234766	3433.332031
7239.211484	1.089705	0.232248	493.636200
7239.212385	1.542946	0.232248	1883.830078
7239.213289	0.798651	0.232248	2605.810791
7239.214249	0.094655	0.232248	2696.679199
7239.215153	0.090187	0.232248	2778.208008
7239.216046	0.090289	0.232248	2858.836426
7239.216976	0.090319	0.232248	2942.832764
7239.217879	0.090275	0.232248	3024.350830
7239.218781	0.090132	0.232248	3105.649658
7239.219666	0.090282	0.232248	3185.549316
7239.220612	0.090289	0.232248	3270.962891
7239.221509	0.090264	0.232248	3351.929443
7239.222413	0.090282	0.232248	3433.544434
7240.232910	1.067655	0.235225	468.700531
7240.233827	1.541620	0.235225	1882.365967
7240.234768	0.746854	0.235225	2585.155762
7240.235675	0.095288	0.235225	2671.582031
7240.236565	0.090139	0.235225	2751.805908
7240.237504	0.090242	0.235225	2836.542969
7240.238425	0.090165	0.235225	2919.584717
7240.239343	0.090267	0.235225	3002.450195
7240.240234	0.090231	0.235225	3082.845703
7240.241179	0.090242	0.235225	3168.124023
7240.242074	0.090212	0.235225	3248.864014
7240.242965	0.090304	0.235225	3329.324951
7240.243884	0.090264	0.235225	3412.277344
7241.243599	1.078894	0.231885	472.555573
7241.244569	1.543407	0.231885	1969.660278
7241.245491	0.691285	0.231885	2607.025391
7241.246416	0.093794	0.231885	2693.784668
7241.247304	0.090055	0.231885	2773.753418
7241.248250	0.090165	0.231885	2859.049316
7241.249165	0.090212	0.231885	2941.593750
7241.250060	0.090220	0.231885	3022.340332
7241.250995	0.090271	0.231885	3106.743652
7241.251916	0.090176	0.231885	3189.795654
7241.252842	0.090165	0.231885	3273.288330
7241.253732	0.090176	0.231885	3353.544678
7241.254684	0.090157	0.231885	3439.374512
7242.270147	1.062422	0.234431	461.091125
7242.271067	1.541235	0.234431	1879.027588
7242.272020	0.725691	0.234431	2570.611084
7242.272971	0.093790	0.234431	2659.805664
7242.273861	0.090223	0.234431	2740.104492
7242.274790	0.090190	0.234431	2823.891357
7242.275729	0.090161	0.234431	2908.552734
7242.276648	0.090249	0.234431	2991.491699
7242.277548	0.090157	0.234431	3072.633301
7242.278464	0.090088	0.234431	3155.153809
7242.279401	0.090150	0.234431	3239.624512
7242.280318	0.090209	0.234431	3322.345947
7242.281213	0.090249	0.234431	3403.118896
7243.278281	1.069519	0.228284	468.449341
7243.279266	1.543909	0.228284	1989.199463
7243.280204	0.655620	0.228284	2604.171143
7243.281095	0.093724	0.228284	2687.679443
7243.282024	0.090114	0.228284	2771.395020
7243.282966	0.090216	0.228284	2856.378662
7243.283880	0.090212	0.228284	2938.832764
7243.284778	0.090227	0.228284	3019.856689
7243.285714	0.090198	0.228284	3104.281738
7243.286648	0.090205	0.228284	3188.533203
7243.287547	0.090256	0.228284	3269.673584
7243.288461	0.090135	0.228284	3352.057373
7243.289403	0.090194	0.228284	3437.020264
7244.309514	1.111406	0.226213	554.591675
7244.310432	1.545260	0.226213	1973.140259
7244.311336	0.709457	0.226213	2614.489258
7244.312223	0.094958	0.226213	2698.717529
7244.313169	0.090176	0.226213	2784.023926
7244.314067	0.090293	0.226213	2865.106934
7244.314971	0.090187	0.226213	2946.635742
7244.315885	0.090209	0.226213	3029.086426
7244.316814	0.090297	0.226213	3112.971924
7244.317717	0.090157	0.226213	3194.384033
7244.318607	0.090187	0.226213	3274.650146
7244.319557	0.090278	0.226213	3360.414551
7244.320460	0.090315	0.226213	3441.968994
7245.312496	1.084028	0.220956	515.997437
7245.313437	1.545615	0.220956	1970.421387
7245.314354	0.688839	0.220956	2602.086914
7245.315254	0.094171	0.220956	2686.840820
7245.316186	0.090227	0.220956	2770.932373
7245.317088	0.090278	0.220956	2852.363525
7245.317985	0.090234	0.220956	2933.303711
7245.318874	0.090286	0.220956	3013.567627
7245.319820	0.090326	0.220956	3099.015869
7245.320731	0.090319	0.220956	3181.296143
7245.321621	0.090183	0.220956	3261.559082
7245.322541	0.090308	0.220956	3344.642090
7245.323448	0.090256	0.220956	3426.504639
7246.346748	1.099860	0.226810	537.831360
7246.347666	1.544861	0.226810	1956.013672
7246.348596	0.692677	0.226810	2600.203369
7246.349491	0.094321	0.226810	2684.620850
7246.350446	0.090216	0.226810	2770.777100
7246.351349	0.090128	0.226810	2852.162842
7246.352276	0.090209	0.226810	2935.786377
7246.353165	0.090253	0.226810	3016.020996
7246.354115	0.090212	0.226810	3101.722656
7246.355006	0.090132	0.226810	3182.030029
7246.355895	0.090161	0.226810	3262.183350
7246.356836	0.090253	0.226810	3347.111084
7246.357743	0.090187	0.226810	3428.910400
7247.347680	1.081571	0.219655	485.625366
7247.348583	1.542916	0.219655	1878.878784
7247.349485	0.809465	0.219655	2609.016602
7247.350447	0.097471	0.219655	2702.783447
7247.351353	0.090187	0.219655	2784.492676
7247.352267	0.090201	0.219655	2866.936768
7247.353162	0.090172	0.219655	2947.640869
7247.354115	0.090220	0.219655	3033.620361
7247.355019	0.090168	0.219655	3115.132568
7247.355942	0.090278	0.219655	3198.459473
7247.356831	0.090249	0.219655	3278.690918
7247.357790	0.090227	0.219655	3365.218750
7247.358717	0.090256	0.219655	3448.886475
7248.382923	1.070695	0.229742	467.893524
7248.383851	1.542726	0.229742	1899.543091
7248.384810	0.719875	0.229742	2589.903564
7248.385741	0.093677	0.229742	2677.116699
7248.386642	0.090187	0.229742	2758.375000
7248.387567	0.090201	0.229742	2841.811279
7248.388509	0.090223	0.229742	2926.801758
7248.389442	0.090201	0.229742	3010.959717
7248.390335	0.090223	0.229742	3091.529297
7248.391251	0.090201	0.229742	3174.153809
7248.392195	0.090253	0.229742	3259.352295
7248.393113	0.090194	0.229742	3342.150391
7248.394001	0.090125	0.229742	3422.180908
7249.383371	1.071888	0.215607	468.415253
7249.384307	1.542759	0.215607	1912.437500
7249.385261	0.723757	0.215607	2602.901855
7249.386182	0.094175	0.215607	2689.636963
7249.387072	0.090165	0.215607	2769.883545
7249.388001	0.090212	0.215607	2853.690918
7249.388931	0.090220	0.215607	2937.595215
7249.389856	0.090205	0.215607	3021.034912
7249.390758	0.090205	0.215607	3102.399902
7249.391679	0.090157	0.215607	3185.435059
7249.392612	0.090242	0.215607	3269.630615
7249.393535	0.090220	0.215607	3352.903320
7249.394426	0.090223	0.215607	3433.292480
