time (s)	coil I (A)	last det (V)	int current (uC)
4538.087882	1.068226	0.386468	467.883148
4538.088825	0.633296	0.386468	1065.081177
4538.089777	0.092340	0.386468	1152.988892
4538.090696	0.090135	0.386468	1235.823364
4538.091582	0.090209	0.386468	1315.748291
4538.092511	0.090183	0.386468	1399.528442
4538.093434	0.090194	0.386468	1482.777588
4538.094350	0.090223	0.386468	1565.422241
4538.095235	0.090132	0.386468	1645.188965
4538.096193	0.090172	0.386468	1731.573853
4538.097129	0.090205	0.386468	1816.005859
4538.098030	0.090286	0.386468	1897.353271
4539.081671	1.066930	0.436451	468.382233
4539.082652	0.578375	0.436451	1035.768311
4539.083588	0.091622	0.436451	1121.526855
4539.084485	0.090267	0.436451	1202.496704
4539.085402	0.090220	0.436451	1285.228149
4539.086344	0.090326	0.436451	1370.315186
4539.087274	0.090297	0.436451	1454.291016
4539.088181	0.090238	0.436451	1536.136963
4539.089093	0.090209	0.436451	1618.407349
4539.090015	0.090271	0.436451	1701.637207
4539.090950	0.090234	0.436451	1786.006348
4539.091852	0.090275	0.436451	1867.434082
4540.123131	1.085988	0.392688	527.789978
4540.124064	0.549258	0.392688	1040.247559
4540.124959	0.092413	0.392688	1122.957520
4540.125848	0.090278	0.392688	1203.214966
4540.126803	0.090370	0.392688	1289.518188
4540.127699	0.090300	0.392688	1370.427246
4540.128598	0.090220	0.392688	1451.534790
4540.129485	0.090267	0.392688	1531.601929
4540.130416	0.090311	0.392688	1615.681763
4540.131327	0.090205	0.392688	1697.858643
4540.132232	0.090253	0.392688	1779.537354
4540.133168	0.090264	0.392688	1864.024170
4541.116892	1.083109	0.448742	481.983582
4541.117822	0.625811	0.448742	1063.987427
4541.118711	0.093373	0.448742	1146.995850
4541.119641	0.090297	0.448742	1230.971680
4541.120537	0.090385	0.448742	1311.956177
4541.121450	0.090227	0.448742	1394.333496
4541.122344	0.090304	0.448742	1475.065186
4541.123268	0.090374	0.448742	1558.570312
4541.124170	0.090271	0.448742	1639.994751
4541.125072	0.090238	0.448742	1721.389404
4541.125960	0.090275	0.448742	1801.553345
4541.126905	0.090370	0.448742	1886.952881
4542.157328	1.124806	0.393767	575.900574
4542.158239	0.552019	0.393767	1078.789917
4542.159161	0.091923	0.393767	1163.542603
4542.160051	0.090209	0.393767	1243.828369
4542.160996	0.090245	0.393767	1329.110229
4542.161900	0.090216	0.393767	1410.665527
4542.162791	0.090264	0.393767	1491.090454
4542.163711	0.090271	0.393767	1574.139771
4542.164647	0.090194	0.393767	1658.561401
4542.165553	0.090157	0.393767	1740.244019
4542.166441	0.090249	0.393767	1820.385132
4542.167386	0.090315	0.393767	1905.732788
4543.150536	1.075437	0.455030	471.041382
4543.151527	0.566349	0.455030	1032.293091
4543.152446	0.091835	0.455030	1116.689209
4543.153335	0.090220	0.455030	1196.894531
4543.154273	0.090249	0.455030	1281.548096
4543.155185	0.090227	0.455030	1363.835205
4543.156104	0.090231	0.455030	1446.757202
4543.157006	0.090212	0.455030	1528.128784
4543.157961	0.090238	0.455030	1614.306152
4543.158868	0.090198	0.455030	1696.115479
4543.159791	0.090260	0.455030	1779.425415
4543.160682	0.090209	0.455030	1859.801392
4544.189401	1.070076	0.389171	479.393890
4544.190304	0.654408	0.389171	1070.324341
4544.191189	0.094054	0.389171	1153.562134
4544.192156	0.090249	0.389171	1240.832886
4544.193097	0.090234	0.389171	1325.743408
4544.193996	0.090256	0.389171	1406.883911
4544.194918	0.090179	0.389171	1490.029297
4544.195855	0.090205	0.389171	1574.551514
4544.196772	0.090209	0.389171	1657.272949
4544.197666	0.090234	0.389171	1737.942505
4544.198598	0.090209	0.389171	1822.017090
4544.199529	0.090187	0.389171	1905.980957
4545.185757	1.071742	0.461073	480.140381
4545.186665	0.647245	0.461073	1067.838745
4545.187555	0.093761	0.461073	1151.286011
4545.188527	0.090176	0.461073	1238.936890
4545.189473	0.090227	0.461073	1324.291626
4545.190371	0.090253	0.461073	1405.338501
4545.191284	0.090304	0.461073	1487.786011
4545.192217	0.090154	0.461073	1571.899536
4545.193137	0.090238	0.461073	1654.918579
4545.194027	0.090275	0.461073	1735.263062
4545.194950	0.090198	0.461073	1818.515625
4545.195895	0.090121	0.461073	1903.679810
4546.226141	1.086178	0.382988	485.521545
4546.227057	0.630483	0.382988	1063.044312
4546.227944	0.093688	0.382988	1146.145386
4546.228893	0.090223	0.382988	1231.767334
4546.229847	0.090194	0.382988	1317.812500
4546.230780	0.090220	0.382988	1401.987549
4546.231675	0.090198	0.382988	1482.714478
4546.232618	0.090212	0.382988	1567.784790
4546.233520	0.090337	0.382988	1649.268677
4546.234412	0.090249	0.382988	1729.770752
4546.235308	0.090201	0.382988	1810.591187
4546.236249	0.090311	0.382988	1895.574097
4547.222517	1.093715	0.452246	529.357849
4547.223439	0.570685	0.452246	1055.529297
4547.224344	0.092487	0.452246	1139.229614
4547.225238	0.090253	0.452246	1219.915527
4547.226170	0.090282	0.452246	1304.058350
4547.227071	0.090260	0.452246	1385.382568
4547.227967	0.090249	0.452246	1466.245728
4547.228852	0.090278	0.452246	1546.142090
4547.229791	0.090264	0.452246	1630.899658
4547.230702	0.090231	0.452246	1713.099854
4547.231598	0.090220	0.452246	1793.936768
4547.232533	0.090300	0.452246	1878.367554
4548.262346	1.066743	0.375588	469.366974
4548.263313	0.589655	0.375588	1039.562988
4548.264203	0.092703	0.375588	1122.068359
4548.265094	0.090249	0.375588	1202.480225
4548.266021	0.090304	0.375588	1286.192017
4548.266942	0.090326	0.375588	1369.382202
4548.267845	0.090231	0.375588	1450.860596
4548.268737	0.090223	0.375588	1531.339844
4548.269675	0.090344	0.375588	1616.082764
4548.270585	0.090278	0.375588	1698.236084
4548.271486	0.090121	0.375588	1779.434937
4548.272375	0.090289	0.375588	1859.702148
4549.257178	1.083398	0.450639	486.445923
4549.258084	0.643158	0.450639	1069.146973
4549.258973	0.093746	0.450639	1152.487427
4549.259911	0.090260	0.450639	1237.151367
4549.260818	0.090146	0.450639	1318.914185
4549.261739	0.090220	0.450639	1402.006592
4549.262628	0.090216	0.450639	1482.208618
4549.263581	0.090234	0.450639	1568.202026
4549.264476	0.090212	0.450639	1648.942139
4549.265366	0.090165	0.450639	1729.188843
4549.266281	0.090234	0.450639	1811.753296
4549.267212	0.090172	0.450639	1895.703491
4550.299592	1.064290	0.377932	461.901672
4550.300538	0.635988	0.377932	1063.545898
4550.301484	0.092300	0.377932	1150.861572
4550.302402	0.090212	0.377932	1233.676514
4550.303288	0.090231	0.377932	1313.620972
4550.304243	0.090242	0.377932	1399.801758
4550.305178	0.090165	0.377932	1484.105835
4550.306080	0.090190	0.377932	1565.457642
4550.306995	0.090201	0.377932	1647.991943
4550.307929	0.090201	0.377932	1732.240112
4550.308850	0.090209	0.377932	1815.322388
4550.309749	0.090238	0.377932	1896.446411
4551.291869	1.089796	0.446139	489.318481
4551.292775	0.637310	0.446139	1066.720947
4551.293727	0.092512	0.446139	1154.792603
4551.294635	0.090223	0.446139	1236.715454
4551.295560	0.090337	0.446139	1320.277100
4551.296449	0.090220	0.446139	1400.482422
4551.297403	0.090253	0.446139	1486.583496
4551.298322	0.090205	0.446139	1569.481934
4551.299246	0.090227	0.446139	1652.851685
4551.300133	0.090172	0.446139	1732.834351
4551.301066	0.090139	0.446139	1816.934204
4551.302000	0.090198	0.446139	1901.178955
4552.336846	1.070204	0.381404	469.819519
4552.337802	0.603098	0.381404	1046.381348
4552.338709	0.092457	0.381404	1130.240112
4552.339624	0.090223	0.381404	1212.794556
4552.340525	0.090242	0.381404	1294.102295
4552.341477	0.090249	0.381404	1380.019409
4552.342415	0.090289	0.381404	1464.710815
4552.343308	0.090249	0.381404	1545.303223
4552.344224	0.090223	0.381404	1627.947876
4552.345164	0.090278	0.381404	1712.809448
4552.346081	0.090249	0.381404	1795.567749
4552.346970	0.090293	0.381404	1875.838135
4553.327085	1.079495	0.438168	511.680450
4553.328048	0.563463	0.438168	1054.295410
4553.328969	0.091868	0.438168	1138.905518
4553.329856	0.090267	0.438168	1218.972656
4553.330762	0.090256	0.438168	1300.744873
4553.331693	0.090253	0.438168	1384.770142
4553.332635	0.090359	0.438168	1469.888184
4553.333532	0.090330	0.438168	1550.913818
4553.334452	0.090194	0.438168	1633.892334
4553.335387	0.090271	0.438168	1718.295654
4553.336306	0.090249	0.438168	1801.234497
4553.337193	0.090238	0.438168	1881.275635
4554.370507	1.061525	0.394460	464.947845
4554.371491	0.582902	0.394460	1038.523071
4554.372428	0.091725	0.394460	1124.469238
4554.373338	0.090264	0.394460	1206.609131
4554.374241	0.090253	0.394460	1288.107300
4554.375195	0.090223	0.394460	1374.180420
4554.376132	0.090238	0.394460	1458.733521
4554.377034	0.090234	0.394460	1540.124878
4554.377951	0.090238	0.394460	1622.873169
4554.378892	0.090264	0.394460	1707.811279
4554.379812	0.090297	0.394460	1790.884155
4554.380701	0.090187	0.394460	1871.060181
4555.363267	1.059240	0.438176	456.532227
4555.364204	0.648358	0.438176	1064.043823
4555.365147	0.092688	0.438176	1151.448608
4555.366071	0.090223	0.438176	1234.815063
4555.366960	0.090344	0.438176	1315.131104
4555.367888	0.090330	0.438176	1398.956909
4555.368800	0.090337	0.438176	1481.344116
4555.369707	0.090311	0.438176	1563.256470
4555.370596	0.090289	0.438176	1643.523682
4555.371515	0.090348	0.438176	1726.553467
4555.372435	0.090355	0.438176	1809.680298
4555.373338	0.090260	0.438176	1891.185059
4556.406734	1.065117	0.401038	463.325989
4556.407630	0.673989	0.401038	1067.220459
4556.408589	0.092659	0.401038	1156.080200
4556.409491	0.090293	0.401038	1237.524414
4556.410403	0.090264	0.401038	1319.844849
4556.411290	0.090341	0.401038	1399.976929
4556.412231	0.090392	0.401038	1485.035645
4556.413142	0.090282	0.401038	1567.282471
4556.414034	0.090260	0.401038	1647.794434
4556.414925	0.090289	0.401038	1728.242187
4556.415867	0.090341	0.401038	1813.343018
4556.416773	0.090238	0.401038	1895.098633
4557.400015	1.072661	0.438184	476.261566
4557.400908	0.665431	0.438184	1070.491333
4557.401884	0.092289	0.438184	1160.565186
4557.402789	0.090282	0.438184	1242.270386
4557.403689	0.090231	0.438184	1323.478027
4557.404596	0.090348	0.438184	1405.423584
4557.405507	0.090308	0.438184	1487.693848
4557.406412	0.090227	0.438184	1569.349365
4557.407301	0.090304	0.438184	1649.629639
4557.408222	0.090352	0.438184	1732.843384
4557.409138	0.090330	0.438184	1815.585327
4557.410043	0.090256	0.438184	1897.267334
4558.440424	1.081077	0.407955	507.024933
4558.441334	0.606119	0.407955	1058.593506
4558.442274	0.093109	0.407955	1146.116089
4558.443180	0.090234	0.407955	1227.868408
4558.444102	0.090231	0.407955	1311.061157
4558.444994	0.090194	0.407955	1391.514282
4558.445946	0.090304	0.407955	1477.483643
4558.446842	0.090205	0.407955	1558.307373
4558.447761	0.090282	0.407955	1641.276489
4558.448653	0.090275	0.407955	1721.801514
4558.449611	0.090187	0.407955	1808.200439
4558.450510	0.090194	0.407955	1889.284912
4559.436259	1.089796	0.439831	495.857269
4559.437163	0.638317	0.439831	1072.895508
4559.438049	0.093750	0.439831	1155.958008
4559.438989	0.090220	0.439831	1240.764526
4559.439896	0.090205	0.439831	1322.580566
4559.440809	0.090260	0.439831	1404.987915
4559.441705	0.090282	0.439831	1485.880615
4559.442670	0.090282	0.439831	1573.002686
4559.443572	0.090234	0.439831	1654.394043
4559.444467	0.090300	0.439831	1735.212769
4559.445392	0.090282	0.439831	1818.723633
4559.446306	0.090205	0.439831	1901.171021
4560.474079	1.076854	0.418058	482.430695
4560.474989	0.642865	0.418058	1067.437866
4560.475915	0.093776	0.418058	1154.274170
4560.476838	0.090183	0.418058	1237.513184
4560.477776	0.090256	0.418058	1322.173584
4560.478668	0.090256	0.418058	1402.682251
4560.479602	0.090212	0.418058	1486.940674
4560.480534	0.090267	0.418058	1571.069824
4560.481450	0.090319	0.418058	1653.801636
4560.482346	0.090227	0.418058	1734.645020
4560.483301	0.090183	0.418058	1820.769897
4560.484241	0.090286	0.418058	1905.638428
4561.471952	1.066542	0.443175	463.945679
4561.472897	0.655470	0.443175	1083.364746
4561.473834	0.092607	0.443175	1170.137939
4561.474743	0.090264	0.443175	1252.187622
4561.475644	0.090330	0.443175	1333.574585
4561.476566	0.090297	0.443175	1416.828125
4561.477501	0.090242	0.443175	1501.204102
4561.478416	0.090220	0.443175	1583.755127
4561.479302	0.090348	0.443175	1663.803345
4561.480246	0.090289	0.443175	1749.036499
4561.481180	0.090231	0.443175	1833.312012
4561.482076	0.090260	0.443175	1914.184937
4562.508773	1.105770	0.424318	514.183228
4562.509682	0.612264	0.424318	1070.731567
4562.510618	0.092410	0.424318	1157.227051
4562.511559	0.090201	0.424318	1242.106567
4562.512475	0.090271	0.424318	1324.794800
4562.513364	0.090172	0.424318	1404.957764
4562.514309	0.090238	0.424318	1490.232666
4562.515236	0.090267	0.424318	1573.910522
4562.516137	0.090260	0.424318	1655.234741
4562.517051	0.090245	0.424318	1737.718994
4562.517985	0.090238	0.424318	1822.001343
4562.518899	0.090245	0.424318	1904.485596
4563.508178	1.076433	0.430522	475.783417
4563.509106	0.622936	0.430522	1053.867798
4563.510000	0.093179	0.430522	1137.169556
4563.510940	0.090234	0.430522	1221.989868
4563.511842	0.090308	0.430522	1303.447388
4563.512741	0.090172	0.430522	1384.512085
4563.513628	0.090187	0.430522	1464.507690
4563.514578	0.090293	0.430522	1550.286011
4563.515468	0.090267	0.430522	1630.623901
4563.516383	0.090271	0.430522	1713.221924
4563.517273	0.090220	0.430522	1793.517456
4563.518217	0.090359	0.430522	1878.816284
4564.542429	1.086482	0.428189	486.743896
4564.543339	0.634699	0.428189	1064.319580
4564.544227	0.093783	0.428189	1147.598877
4564.545190	0.090326	0.428189	1234.582764
4564.546085	0.090333	0.428189	1315.431030
4564.546972	0.090330	0.428189	1395.553345
4564.547899	0.090432	0.428189	1479.383911
4564.548816	0.090326	0.428189	1562.212769
4564.549719	0.090267	0.428189	1643.724121
4564.550610	0.090267	0.428189	1724.152344
4564.551571	0.090414	0.428189	1811.040039
4564.552477	0.090260	0.428189	1892.815674
4565.546458	1.081956	0.429913	493.371735
4565.547354	0.647369	0.429913	1073.414673
4565.548304	0.093545	0.429913	1162.282349
4565.549208	0.090157	0.429913	1243.784668
4565.550132	0.090209	0.429913	1327.137573
4565.551033	0.090234	0.429913	1408.438721
4565.551971	0.090275	0.429913	1493.116333
4565.552879	0.090278	0.429913	1575.089111
4565.553775	0.090249	0.429913	1655.952271
4565.554701	0.090319	0.429913	1739.587280
4565.555616	0.090264	0.429913	1822.178589
4565.556511	0.090205	0.429913	1902.912109
4566.577614	1.064612	0.429599	468.429199
4566.578509	0.673700	0.429599	1071.390625
4566.579461	0.093171	0.429599	1160.089844
4566.580389	0.090179	0.429599	1243.776367
4566.581285	0.090304	0.429599	1324.688721
4566.582205	0.090278	0.429599	1407.744751
4566.583144	0.090304	0.429599	1492.540161
4566.584063	0.090256	0.429599	1575.485718
4566.584956	0.090242	0.429599	1656.071533
4566.585896	0.090249	0.429599	1740.905640
4566.586824	0.090146	0.429599	1824.561523
4566.587740	0.090278	0.429599	1907.256470
4567.585222	1.062642	0.429374	463.311737
4567.586177	0.596448	0.429374	1032.919312
4567.587141	0.092036	0.429374	1121.642090
4567.588059	0.090234	0.429374	1204.477295
4567.588948	0.090183	0.429374	1284.650024
4567.589889	0.090212	0.429374	1369.539917
4567.590827	0.090139	0.429374	1454.090454
4567.591726	0.090205	0.429374	1535.184814
4567.592647	0.090333	0.429374	1618.381714
4567.593587	0.090278	0.429374	1703.243286
4567.594512	0.090245	0.429374	1786.720215
4567.595404	0.090348	0.429374	1867.310547
4568.612302	1.069735	0.430107	470.683411
4568.613202	0.663739	0.430107	1068.048584
4568.614140	0.092944	0.430107	1155.230347
4568.615061	0.090249	0.430107	1238.349731
4568.615957	0.090227	0.430107	1319.193115
4568.616881	0.090352	0.430107	1402.677979
4568.617786	0.090359	0.430107	1484.452759
4568.618695	0.090220	0.430107	1566.462524
4568.619591	0.090315	0.430107	1647.384766
4568.620537	0.090308	0.430107	1732.815796
4568.621434	0.090341	0.430107	1813.851318
4568.622341	0.090201	0.430107	1895.664062
4569.622984	1.063491	0.428475	464.745667
4569.623925	0.650068	0.428475	1076.459961
4569.624832	0.093102	0.428475	1160.903320
4569.625724	0.090267	0.428475	1241.421753
4569.626614	0.090267	0.428475	1321.759644
4569.627551	0.090337	0.428475	1406.405273
4569.628461	0.090289	0.428475	1488.568481
4569.629364	0.090282	0.428475	1570.093140
4569.630251	0.090245	0.428475	1650.140747
4569.631201	0.090322	0.428475	1735.946899
4569.632099	0.090271	0.428475	1817.010254
4569.632989	0.090282	0.428475	1897.361206
4570.647558	1.095447	0.430896	541.150757
4570.648496	0.531855	0.430896	1040.031250
4570.649395	0.091937	0.430896	1122.682861
4570.650284	0.090245	0.430896	1202.911011
4570.651241	0.090245	0.430896	1289.275879
4570.652136	0.090253	0.430896	1370.052002
4570.653056	0.090260	0.430896	1453.091187
4570.653949	0.090289	0.430896	1533.719482
4570.654906	0.090231	0.430896	1620.070312
4570.655809	0.090242	0.430896	1701.558594
4570.656700	0.090282	0.430896	1781.999878
4570.657633	0.090282	0.430896	1866.232910
4571.659223	1.088848	0.431827	492.159119
4571.660175	0.568696	0.431827	1033.557983
4571.661065	0.092618	0.431827	1115.988403
4571.662024	0.090190	0.431827	1202.481079
4571.662944	0.090220	0.431827	1285.483276
4571.663832	0.090282	0.431827	1365.653687
4571.664769	0.090249	0.431827	1450.217041
4571.665681	0.090216	0.431827	1532.494141
4571.666602	0.090278	0.431827	1615.640503
4571.667489	0.090245	0.431827	1695.688110
4571.668428	0.090253	0.431827	1780.435425
4571.669336	0.090201	0.431827	1862.338257
4572.681699	1.095619	0.436238	496.315338
4572.682613	0.625294	0.436238	1067.834229
4572.683532	0.092695	0.436238	1153.021240
4572.684430	0.090223	0.436238	1234.041870
4572.685375	0.090245	0.436238	1319.323730
4572.686301	0.090253	0.436238	1402.897705
4572.687231	0.090212	0.436238	1486.795288
4572.688119	0.090168	0.436238	1566.864868
4572.689067	0.090194	0.436238	1652.368896
4572.690005	0.090209	0.436238	1736.984741
4572.690897	0.090209	0.436238	1817.450928
4572.691818	0.090238	0.436238	1900.560181
4573.695959	1.076246	0.433700	475.700836
4573.696881	0.636204	0.433700	1062.280518
4573.697768	0.093600	0.433700	1145.303589
4573.698713	0.090194	0.433700	1230.536987
4573.699642	0.090249	0.433700	1314.378296
4573.700573	0.090242	0.433700	1398.393311
4573.701472	0.090234	0.433700	1479.514038
4573.702396	0.090121	0.433700	1562.785645
4573.703333	0.090190	0.433700	1647.294067
4573.704252	0.090223	0.433700	1730.209351
4573.705139	0.090216	0.433700	1810.230957
4573.706072	0.090168	0.433700	1894.358154
4574.717403	1.077103	0.432552	482.542267
4574.718307	0.643469	0.432552	1064.238525
4574.719254	0.093794	0.432552	1153.061401
4574.720171	0.090282	0.432552	1235.849976
4574.721075	0.090304	0.432552	1317.484741
4574.721973	0.090271	0.432552	1398.548096
4574.722882	0.090333	0.432552	1480.661011
4574.723801	0.090385	0.432552	1563.724365
4574.724712	0.090220	0.432552	1645.914551
4574.725604	0.090220	0.432552	1726.390503
4574.726537	0.090311	0.432552	1810.650879
4574.727438	0.090341	0.432552	1892.047729
4575.731169	1.091331	0.432737	498.738098
4575.732070	0.640389	0.432737	1075.729004
4575.733025	0.093508	0.432737	1165.029419
4575.733927	0.090231	0.432737	1246.417480
4575.734815	0.090260	0.432737	1326.568359
4575.735702	0.090245	0.432737	1406.615967
4575.736646	0.090264	0.432737	1491.824829
4575.737551	0.090275	0.432737	1573.523437
4575.738454	0.090205	0.432737	1654.978638
4575.739340	0.090297	0.432737	1734.981445
4575.740279	0.090348	0.432737	1819.818115
4575.741184	0.090187	0.432737	1901.437134
4576.752582	1.064231	0.430824	462.940460
4576.753558	0.572677	0.430824	1021.873169
4576.754460	0.092552	0.430824	1105.355469
4576.755359	0.090304	0.430824	1186.538696
4576.756245	0.090220	0.430824	1266.473389
4576.757182	0.090326	0.430824	1351.108765
4576.758086	0.090212	0.430824	1432.660767
4576.758977	0.090260	0.430824	1513.082397
4576.759907	0.090297	0.430824	1597.058228
4576.760821	0.090216	0.430824	1679.515747
4576.761732	0.090194	0.430824	1761.682617
4576.762623	0.090256	0.430824	1842.101074
4577.765332	1.081289	0.432770	483.336212
4577.766231	0.657466	0.432770	1074.397949
4577.767181	0.093032	0.432770	1162.778564
4577.768089	0.090330	0.432770	1244.797852
4577.769007	0.090311	0.432770	1327.703613
4577.769894	0.090293	0.432770	1407.793457
4577.770842	0.090326	0.432770	1493.422485
4577.771744	0.090223	0.432770	1574.803955
4577.772632	0.090282	0.432770	1654.974365
4577.773561	0.090256	0.432770	1738.822510
4577.774481	0.090275	0.432770	1821.875244
4577.775388	0.090256	0.432770	1903.737793
4578.787806	1.075811	0.431819	481.963135
4578.788731	0.624291	0.431819	1059.432129
4578.789627	0.093120	0.431819	1142.867798
4578.790557	0.090234	0.431819	1226.785767
4578.791489	0.090286	0.431819	1310.932007
4578.792412	0.090264	0.431819	1394.245361
4578.793302	0.090242	0.431819	1474.560425
4578.794247	0.090220	0.431819	1559.818115
4578.795147	0.090227	0.431819	1641.022461
4578.796074	0.090337	0.431819	1724.764771
4578.796962	0.090278	0.431819	1804.931885
4578.797903	0.090245	0.431819	1889.852783
4579.798513	1.082670	0.436033	502.358765
4579.799431	0.617714	0.436033	1069.419922
4579.800323	0.093135	0.436033	1152.496094
4579.801261	0.090271	0.436033	1237.170288
4579.802202	0.090227	0.436033	1322.073975
4579.803121	0.090205	0.436033	1404.972412
4579.804015	0.090220	0.436033	1485.628906
4579.804944	0.090267	0.436033	1569.487305
4579.805872	0.090264	0.436033	1653.251953
4579.806789	0.090322	0.436033	1736.077515
4579.807677	0.090289	0.436033	1816.254395
4579.808621	0.090242	0.436033	1901.442505
4580.825075	1.103064	0.431134	528.367615
4580.826022	0.544977	0.431134	1044.460693
4580.826958	0.091780	0.431134	1130.366577
4580.827845	0.090275	0.431134	1210.440186
4580.828794	0.090304	0.431134	1296.138672
4580.829724	0.090319	0.431134	1380.135010
4580.830615	0.090348	0.431134	1460.635010
4580.831543	0.090319	0.431134	1544.450684
4580.832484	0.090289	0.431134	1629.412964
4580.833410	0.090267	0.431134	1713.000488
4580.834306	0.090297	0.431134	1793.906250
4580.835222	0.090300	0.431134	1876.621338
4581.831619	1.061085	0.443062	459.449890
4581.832572	0.605006	0.443062	1036.020752
4581.833477	0.092780	0.443062	1119.986206
4581.834378	0.090275	0.443062	1201.323730
4581.835267	0.090249	0.443062	1281.555176
4581.836218	0.090374	0.443062	1367.500366
4581.837121	0.090271	0.443062	1449.015137
4581.838013	0.090326	0.443062	1529.585815
4581.838947	0.090253	0.443062	1613.881836
4581.839860	0.090348	0.443062	1696.369507
4581.840769	0.090264	0.443062	1778.419189
4581.841667	0.090275	0.443062	1859.485840
4582.861776	1.076290	0.438252	476.796570
4582.862737	0.608676	0.438252	1061.733765
4582.863645	0.092593	0.438252	1145.807983
4582.864538	0.090242	0.438252	1226.393799
4582.865428	0.090326	0.438252	1306.783936
4582.866357	0.090388	0.438252	1390.754517
4582.867272	0.090249	0.438252	1473.332397
4582.868166	0.090319	0.438252	1554.077271
4582.869056	0.090242	0.438252	1634.392334
4582.870018	0.090319	0.438252	1721.278809
4582.870928	0.090256	0.438252	1803.412109
4582.871818	0.090311	0.438252	1883.789185
4583.865806	1.066516	0.448045	472.466614
4583.866798	0.541714	0.448045	1009.846802
4583.867697	0.092113	0.448045	1092.656372
4583.868586	0.090289	0.448045	1172.923584
4583.869499	0.090330	0.448045	1255.394531
4583.870438	0.090322	0.448045	1340.207153
4583.871351	0.090271	0.448045	1422.624512
4583.872241	0.090286	0.448045	1502.978760
4583.873169	0.090319	0.448045	1586.794434
4583.874084	0.090249	0.448045	1669.372314
4583.875006	0.090231	0.448045	1752.565063
4583.875896	0.090308	0.448045	1832.938843
4584.898536	1.081882	0.436190	497.665833
4584.899451	0.613184	0.436190	1058.728760
4584.900375	0.093153	0.436190	1144.802246
4584.901312	0.090194	0.436190	1229.314087
4584.902233	0.090227	0.436190	1312.413208
4584.903121	0.090297	0.436190	1392.596558
4584.904057	0.090223	0.436190	1477.045654
4584.904981	0.090300	0.436190	1560.483154
4584.905894	0.090304	0.436190	1642.930664
4584.906784	0.090267	0.436190	1723.268555
4584.907730	0.090242	0.436190	1808.637207
4584.908664	0.090278	0.436190	1892.957153
4585.899471	1.073705	0.450454	478.872345
4585.900371	0.644253	0.450454	1058.699951
4585.901333	0.092618	0.450454	1147.798828
4585.902277	0.090209	0.450454	1232.955933
4585.903202	0.090212	0.450454	1316.402344
4585.904101	0.090231	0.450454	1397.519775
4585.905052	0.090223	0.450454	1483.322266
4585.905983	0.090205	0.450454	1567.303223
4585.906885	0.090297	0.450454	1648.750732
4585.907797	0.090253	0.450454	1731.061157
4585.908739	0.090190	0.450454	1816.020508
4585.909658	0.090256	0.450454	1898.966064
4586.935772	1.081512	0.431404	480.191528
4586.936688	0.632241	0.431404	1059.324463
4586.937587	0.093270	0.431404	1143.174438
4586.938520	0.090264	0.431404	1227.390381
4586.939426	0.090282	0.431404	1309.185913
4586.940325	0.090278	0.431404	1390.346069
4586.941216	0.090271	0.431404	1470.777588
4586.942163	0.090289	0.431404	1556.281494
4586.943057	0.090242	0.431404	1636.957520
4586.943960	0.090282	0.431404	1718.482178
4586.944849	0.090223	0.431404	1798.690796
4586.945782	0.090348	0.431404	1882.985352
4587.933146	1.086925	0.458091	495.637817
4587.934042	0.649438	0.458091	1077.534668
4587.934980	0.093812	0.458091	1165.530518
4587.935894	0.090205	0.458091	1247.977905
4587.936803	0.090209	0.458091	1329.977661
4587.937706	0.090245	0.458091	1411.469238
4587.938637	0.090282	0.458091	1495.521729
4587.939542	0.090216	0.458091	1577.167236
4587.940449	0.090183	0.458091	1658.963379
4587.941337	0.090297	0.458091	1739.146729
4587.942272	0.090319	0.458091	1823.594604
4587.943175	0.090264	0.458091	1905.102661
4588.971467	1.062883	0.431243	463.417114
4588.972405	0.649680	0.431243	1072.817139
4588.973322	0.092725	0.431243	1157.845581
4588.974222	0.090194	0.431243	1239.020264
4588.975109	0.090242	0.431243	1319.064697
4588.976048	0.090271	0.431243	1403.829102
4588.976962	0.090209	0.431243	1486.279907
4588.977884	0.090227	0.431243	1569.469238
4588.978776	0.090249	0.431243	1649.971313
4588.979732	0.090220	0.431243	1736.221313
4588.980627	0.090227	0.431243	1816.974487
4588.981552	0.090326	0.431243	1900.526001
4589.968327	1.060745	0.466414	460.363190
4589.969222	0.664406	0.466414	1055.006104
4589.970191	0.092454	0.466414	1144.593628
4589.971121	0.090139	0.466414	1228.423096
4589.972011	0.090293	0.466414	1308.783813
4589.972953	0.090264	0.466414	1393.812256
4589.973867	0.090168	0.466414	1476.226196
4589.974785	0.090194	0.466414	1559.024414
4589.975671	0.090194	0.466414	1638.936401
4589.976616	0.090245	0.466414	1724.218262
4589.977536	0.090183	0.466414	1807.186768
4589.978425	0.090231	0.466414	1887.401855
4591.006702	1.081326	0.431323	511.467041
4591.007649	0.539183	0.431323	1022.073608
4591.008575	0.091846	0.431323	1107.122681
4591.009464	0.090209	0.431323	1187.318237
4591.010396	0.090143	0.431323	1271.331299
4591.011332	0.090253	0.431323	1355.807861
4591.012246	0.090275	0.431323	1438.318848
4591.013132	0.090209	0.431323	1518.243774
4591.014066	0.090187	0.431323	1602.478271
4591.015006	0.090260	0.431323	1687.322632
4591.015908	0.090308	0.431323	1768.780151
4591.016826	0.090205	0.431323	1851.588379
4592.003018	1.066813	0.474128	470.464417
4592.003977	0.584440	0.474128	1030.942139
4592.004914	0.091802	0.474128	1116.960449
4592.005831	0.090267	0.474128	1199.735596
4592.006719	0.090201	0.474128	1279.834473
4592.007663	0.090264	0.474128	1365.043335
4592.008602	0.090190	0.474128	1449.732178
4592.009492	0.090275	0.474128	1530.076660
4592.010411	0.090212	0.474128	1612.981812
4592.011351	0.090238	0.474128	1697.805542
4592.012276	0.090234	0.474128	1781.272339
4592.013169	0.090216	0.474128	1861.835327
4593.042400	1.097303	0.430248	498.175751
4593.043306	0.630948	0.430248	1069.815063
4593.044192	0.093622	0.430248	1152.764038
4593.045143	0.090326	0.430248	1238.663940
4593.046051	0.090234	0.430248	1320.596802
4593.046941	0.090242	0.430248	1400.911865
4593.047871	0.090260	0.430248	1484.853638
4593.048774	0.090234	0.430248	1566.335327
4593.049678	0.090220	0.430248	1647.893921
4593.050571	0.090187	0.430248	1728.430664
4593.051577	0.090315	0.430248	1819.287476
4593.052473	0.090212	0.430248	1900.117798
4594.037751	1.088536	0.487825	524.674561
4594.038670	0.577408	0.487825	1055.312988
4594.039567	0.092728	0.487825	1138.490234
4594.040455	0.090110	0.487825	1218.507812
4594.041408	0.090289	0.487825	1304.553467
4594.042307	0.090227	0.487825	1385.667603
4594.043209	0.090154	0.487825	1466.986328
4594.044100	0.090172	0.487825	1547.329712
4594.045031	0.090242	0.487825	1631.344727
4594.045946	0.090135	0.487825	1713.818726
4594.046850	0.090201	0.487825	1795.360840
4594.047738	0.090297	0.487825	1875.544189
4595.077580	1.063945	0.430425	462.816193
4595.078526	0.643462	0.430425	1071.531128
4595.079448	0.092388	0.430425	1156.712524
4595.080353	0.090154	0.430425	1238.301758
4595.081245	0.090238	0.430425	1318.794067
4595.082206	0.090231	0.430425	1405.505737
4595.083116	0.090209	0.430425	1487.595703
4595.084038	0.090231	0.430425	1570.788452
4595.084932	0.090194	0.430425	1651.421997
4595.085892	0.090198	0.430425	1738.011841
4595.086782	0.090154	0.430425	1818.248779
4595.087696	0.090168	0.430425	1900.662720
4596.072923	1.075367	0.491744	477.463104
4596.073834	0.641796	0.491744	1062.139038
4596.074725	0.093655	0.491744	1145.585449
4596.075673	0.090139	0.491744	1231.037354
4596.076592	0.090212	0.491744	1313.942505
4596.077511	0.090143	0.491744	1396.783813
4596.078401	0.090231	0.491744	1477.089111
4596.079351	0.090187	0.491744	1562.766602
4596.080256	0.090135	0.491744	1644.339233
4596.081170	0.090278	0.491744	1726.853638
4596.082055	0.090132	0.491744	1806.620361
4596.082971	0.090172	0.491744	1889.218018
4597.111757	1.068116	0.429233	469.971222
4597.112654	0.669020	0.429233	1070.081909
4597.113626	0.092981	0.429233	1160.459351
4597.114555	0.090135	0.429233	1244.195190
4597.115444	0.090286	0.429233	1324.459106
4597.116373	0.090161	0.429233	1408.218750
4597.117311	0.090205	0.429233	1492.831055
4597.118233	0.090161	0.429233	1575.959595
4597.119127	0.090267	0.429233	1656.658569
4597.120047	0.090212	0.429233	1739.653931
4597.120987	0.090176	0.429233	1824.419189
4597.121901	0.090231	0.429233	1906.890015
4598.110200	1.108323	0.489480	540.861511
4598.111160	0.521100	0.489480	1041.117432
4598.112078	0.091600	0.489480	1125.206543
4598.112968	0.090168	0.489480	1205.456421
4598.113918	0.090201	0.489480	1291.147705
4598.114845	0.090223	0.489480	1374.784790
4598.115734	0.090289	0.489480	1455.052002
4598.116655	0.090216	0.489480	1538.140991
4598.117587	0.090223	0.489480	1622.229248
4598.118509	0.090245	0.489480	1705.435425
4598.119409	0.090223	0.489480	1786.636475
4598.120341	0.090245	0.489480	1870.745117
4599.147478	1.092997	0.427734	488.569580
4599.148462	0.533126	0.427734	1013.165771
4599.149358	0.092062	0.427734	1095.653076
4599.150245	0.090216	0.427734	1175.674683
4599.151185	0.090311	0.427734	1260.567261
4599.152087	0.090304	0.427734	1342.021484
4599.152991	0.090293	0.427734	1423.646362
4599.153883	0.090242	0.427734	1504.141968
4599.154826	0.090363	0.427734	1589.353882
4599.155731	0.090253	0.427734	1671.032593
4599.156625	0.090297	0.427734	1751.757812
4599.157532	0.090388	0.427734	1833.739868
4600.144844	1.069559	0.496123	467.397430
4600.145755	0.660542	0.496123	1069.151123
4600.146644	0.094105	0.496123	1152.810669
4600.147575	0.090267	0.496123	1236.849609
4600.148487	0.090275	0.496123	1319.180054
4600.149384	0.090183	0.496123	1400.074341
4600.150297	0.090209	0.496123	1482.434937
4600.151206	0.090245	0.496123	1564.468018
4600.152151	0.090216	0.496123	1649.722168
4600.153049	0.090238	0.496123	1730.755981
4600.153939	0.090260	0.496123	1811.087402
4600.154871	0.090245	0.496123	1895.196045
4601.183191	1.076393	0.425237	482.223969
4601.184091	0.658286	0.425237	1074.681396
4601.185046	0.093889	0.425237	1164.345581
4601.185955	0.090297	0.425237	1246.425171
4601.186864	0.090212	0.425237	1328.428223
4601.187761	0.090311	0.425237	1409.437500
4601.188704	0.090190	0.425237	1494.487061
4601.189608	0.090264	0.425237	1576.085449
4601.190533	0.090242	0.425237	1659.558960
4601.191422	0.090190	0.425237	1739.738281
4601.192372	0.090161	0.425237	1825.391357
4601.193294	0.090172	0.425237	1908.530029
4602.180085	1.118555	0.496514	532.432007
4602.180988	0.600190	0.496514	1074.404053
4602.181929	0.092424	0.496514	1161.375366
4602.182841	0.090187	0.496514	1243.625732
4602.183765	0.090234	0.496514	1327.002319
4602.184656	0.090238	0.496514	1407.404419
4602.185601	0.090231	0.496514	1492.672485
4602.186526	0.090267	0.496514	1576.169800
4602.187415	0.090326	0.496514	1656.469604
4602.188371	0.090286	0.496514	1742.782715
4602.189280	0.090264	0.496514	1824.832397
4602.190197	0.090256	0.496514	1907.597412
4603.219447	1.093916	0.428560	519.610107
4603.220379	0.571886	0.428560	1052.607910
4603.221276	0.092410	0.428560	1135.499390
4603.222197	0.090253	0.428560	1218.622070
4603.223132	0.090183	0.428560	1302.943237
4603.224041	0.090198	0.428560	1384.932983
4603.224929	0.090227	0.428560	1465.054565
4603.225875	0.090209	0.428560	1550.392090
4603.226803	0.090212	0.428560	1634.109253
4603.227724	0.090216	0.428560	1717.198242
4603.228615	0.090176	0.428560	1797.544922
4603.229551	0.090201	0.428560	1881.973389
4604.217302	1.086804	0.497094	491.235535
4604.218198	0.652705	0.497094	1076.059326
4604.219143	0.092644	0.497094	1163.607910
4604.220089	0.090183	0.497094	1248.921143
4604.221008	0.090297	0.497094	1331.903687
4604.221895	0.090231	0.497094	1411.938354
4604.222839	0.090179	0.497094	1497.067749
4604.223765	0.090282	0.497094	1580.668823
4604.224664	0.090333	0.497094	1661.878418
4604.225589	0.090157	0.497094	1745.274048
4604.226528	0.090172	0.497094	1829.945679
4604.227442	0.090245	0.497094	1912.429932
4605.254608	1.075126	0.431110	476.280670
4605.255512	0.659897	0.431110	1072.828003
4605.256400	0.094167	0.431110	1156.448730
4605.257349	0.090253	0.431110	1242.098511
4605.258251	0.090194	0.431110	1323.453613
4605.259148	0.090231	0.431110	1404.390625
4605.260089	0.090282	0.431110	1489.345947
4605.260998	0.090352	0.431110	1571.475586
4605.261901	0.090165	0.431110	1652.894409
4605.262793	0.090245	0.431110	1733.393311
4605.263731	0.090297	0.431110	1818.091553
4605.264631	0.090176	0.431110	1899.249756
4606.251471	1.072566	0.498294	471.929016
4606.252368	0.652786	0.498294	1057.477783
4606.253345	0.092476	0.498294	1147.826416
4606.254280	0.090223	0.498294	1232.185303
4606.255177	0.090282	0.498294	1313.168213
4606.256096	0.090212	0.498294	1396.073364
4606.257040	0.090300	0.498294	1481.316895
4606.257961	0.090223	0.498294	1564.412598
4606.258857	0.090256	0.498294	1645.282227
4606.259802	0.090223	0.498294	1730.543335
4606.260737	0.090304	0.498294	1814.977539
4606.261631	0.090286	0.498294	1895.692871
4607.290356	1.117145	0.434413	528.409485
4607.291280	0.585762	0.434413	1069.653320
4607.292174	0.092853	0.434413	1152.663696
4607.293119	0.090326	0.434413	1238.021729
4607.294008	0.090311	0.434413	1318.308472
4607.294909	0.090289	0.434413	1399.659180
4607.295800	0.090264	0.434413	1480.084106
4607.296742	0.090326	0.434413	1565.171143
4607.297652	0.090242	0.434413	1647.291138
4607.298561	0.090220	0.434413	1729.300903
4607.299457	0.090110	0.434413	1810.039307
4607.300402	0.090245	0.434413	1895.321167
4608.286154	1.063308	0.500462	464.665649
4608.287119	0.574720	0.500462	1019.270874
4608.288037	0.092278	0.500462	1103.981934
4608.288947	0.090154	0.500462	1186.021851
4608.289838	0.090209	0.500462	1266.397827
4608.290791	0.090282	0.500462	1352.436523
4608.291698	0.090172	0.500462	1434.222656
4608.292588	0.090168	0.500462	1514.472534
4608.293516	0.090330	0.500462	1598.298340
4608.294422	0.090253	0.500462	1680.067261
4608.295318	0.090157	0.500462	1760.848389
4608.296206	0.090216	0.500462	1840.960205
4609.326052	1.098113	0.439722	498.543152
4609.326953	0.638987	0.439722	1074.270264
4609.327916	0.092673	0.439722	1163.514648
4609.328818	0.090099	0.439722	1244.783813
4609.329736	0.090172	0.439722	1327.561768
4609.330624	0.090176	0.439722	1407.637817
4609.331573	0.090168	0.439722	1493.207642
4609.332494	0.090179	0.439722	1576.262939
4609.333395	0.090194	0.439722	1657.527832
4609.334334	0.090223	0.439722	1742.247559
4609.335243	0.090114	0.439722	1824.160767
4609.336158	0.090201	0.439722	1906.695068
4610.321393	1.113285	0.499277	533.263489
4610.322344	0.530596	0.499277	1037.859985
4610.323272	0.091600	0.499277	1122.865112
4610.324161	0.090227	0.499277	1203.076904
4610.325111	0.090209	0.499277	1288.775146
4610.326039	0.090161	0.499277	1372.444702
4610.326931	0.090245	0.499277	1452.943604
4610.327851	0.090161	0.499277	1535.891846
4610.328783	0.090183	0.499277	1619.942505
4610.329702	0.090260	0.499277	1702.891479
4610.330599	0.090212	0.499277	1783.812012
4610.331546	0.090128	0.499277	1869.163330
4611.360713	1.065608	0.444520	465.670654
4611.361664	0.595437	0.444520	1031.931152
4611.362611	0.092117	0.444520	1119.165649
4611.363533	0.090209	0.444520	1202.338135
4611.364420	0.090300	0.444520	1282.434448
4611.365346	0.090223	0.444520	1365.981323
4611.366281	0.090190	0.444520	1450.309326
4611.367199	0.090212	0.444520	1533.124268
4611.368095	0.090231	0.444520	1613.970947
4611.369041	0.090234	0.444520	1699.332642
4611.369979	0.090201	0.444520	1783.941528
4611.370881	0.090245	0.444520	1865.342896
4612.357083	1.075291	0.494621	478.504303
4612.357980	0.655170	0.494621	1066.191528
4612.358956	0.092589	0.494621	1156.558472
4612.359877	0.090253	0.494621	1239.681152
4612.360770	0.090289	0.494621	1320.309448
4612.361680	0.090209	0.494621	1402.399414
4612.362612	0.090095	0.494621	1486.368164
4612.363548	0.090190	0.494621	1570.786377
4612.364450	0.090278	0.494621	1652.217407
4612.365368	0.090168	0.494621	1734.992065
4612.366311	0.090304	0.494621	1820.148682
4612.367235	0.090234	0.494621	1903.525269
4613.395915	1.079333	0.445688	475.986053
4613.396900	0.535924	0.445688	1003.871216
4613.397801	0.092058	0.445688	1086.815552
4613.398689	0.090212	0.445688	1166.924194
4613.399618	0.090157	0.445688	1250.680542
4613.400522	0.090271	0.445688	1332.285522
4613.401422	0.090205	0.445688	1413.470093
4613.402308	0.090289	0.445688	1493.466431
4613.403256	0.090267	0.445688	1579.039917
4613.404156	0.090227	0.445688	1660.244263
4613.405058	0.090256	0.445688	1741.655518
4613.405948	0.090198	0.445688	1821.931519
4614.392775	1.064601	0.491253	464.165955
4614.393751	0.562665	0.491253	1013.326782
4614.394649	0.092388	0.491253	1096.290894
4614.395543	0.090161	0.491253	1176.894897
4614.396469	0.090205	0.491253	1260.424805
4614.397400	0.090194	0.491253	1344.395508
4614.398306	0.090172	0.491253	1426.091431
4614.399199	0.090256	0.491253	1506.690308
4614.400135	0.090209	0.491253	1591.125732
4614.401043	0.090212	0.491253	1673.038574
4614.401967	0.090249	0.491253	1756.428711
4614.402857	0.090234	0.491253	1836.737305
4615.432179	1.112589	0.452746	527.367249
4615.433085	0.608031	0.452746	1078.243286
4615.433973	0.093164	0.452746	1160.973022
4615.434926	0.090154	0.452746	1246.889648
4615.435862	0.090209	0.452746	1331.325073
4615.436764	0.090242	0.452746	1412.723145
4615.437686	0.090231	0.452746	1495.915894
4615.438630	0.090223	0.452746	1581.086792
4615.439549	0.090260	0.452746	1664.035767
4615.440439	0.090205	0.452746	1744.318237
4615.441388	0.090245	0.452746	1829.961060
4615.442317	0.090194	0.452746	1913.751343
4616.429041	1.079908	0.485319	511.876556
4616.429954	0.598077	0.485319	1057.921265
4616.430844	0.092911	0.485319	1140.612427
4616.431818	0.090249	0.485319	1228.515015
4616.432746	0.090187	0.485319	1312.208374
4616.433659	0.090172	0.485319	1394.535522
4616.434563	0.090227	0.485319	1476.100830
4616.435492	0.090179	0.485319	1559.877563
4616.436436	0.090194	0.485319	1645.020752
4616.437330	0.090238	0.485319	1725.693604
4616.438247	0.090154	0.485319	1808.364624
4616.439178	0.090190	0.485319	1892.331909
4617.466840	1.074316	0.459779	480.219421
4617.467741	0.655902	0.459779	1071.187256
4617.468666	0.093922	0.459779	1158.065186
4617.469577	0.090256	0.459779	1240.288696
4617.470493	0.090150	0.459779	1322.866211
4617.471390	0.090242	0.459779	1403.812988
4617.472321	0.090205	0.459779	1487.793945
4617.473227	0.090231	0.459779	1569.542969
4617.474126	0.090161	0.459779	1650.597778
4617.475015	0.090201	0.459779	1730.786865
4617.475971	0.090300	0.459779	1817.113892
4617.476872	0.090179	0.459779	1898.365601
4618.466773	1.084160	0.478975	486.787933
4618.467678	0.648710	0.478975	1073.870239
4618.468566	0.093918	0.478975	1157.269775
4618.469532	0.090212	0.478975	1244.414917
4618.470455	0.090128	0.478975	1327.603271
4618.471358	0.090253	0.478975	1409.101440
4618.472261	0.090190	0.478975	1490.543457
4618.473197	0.090209	0.478975	1574.978882
4618.474095	0.090172	0.478975	1655.953491
4618.475013	0.090212	0.478975	1738.768433
4618.475900	0.090172	0.478975	1818.751099
4618.476848	0.090187	0.478975	1904.248169
4619.501557	1.094066	0.464323	518.587341
4619.502466	0.606958	0.464323	1070.312134
4619.503354	0.093069	0.464323	1152.957275
4619.504288	0.090227	0.464323	1237.229370
4619.505222	0.090297	0.464323	1321.566406
4619.506118	0.090278	0.464323	1402.455811
4619.507042	0.090223	0.464323	1485.822266
4619.507981	0.090198	0.464323	1570.517944
4619.508915	0.090231	0.464323	1654.793457
4619.509817	0.090260	0.464323	1736.208008
4619.510732	0.090212	0.464323	1818.752319
4619.511667	0.090212	0.464323	1903.100952
4620.504568	1.087636	0.479127	512.276306
4620.505500	0.570527	0.479127	1044.007812
4620.506398	0.092358	0.479127	1126.945679
4620.507317	0.090172	0.479127	1209.813843
4620.508250	0.090337	0.479127	1294.098145
4620.509181	0.090242	0.479127	1378.113159
4620.510080	0.090238	0.479127	1459.237183
4620.511002	0.090249	0.479127	1542.446777
4620.511942	0.090209	0.479127	1627.243042
4620.512880	0.090216	0.479127	1711.865723
4620.513776	0.090271	0.479127	1792.748535
4620.514706	0.090194	0.479127	1876.629028
4621.535690	1.065762	0.469202	463.606323
4621.536624	0.634618	0.469202	1056.339478
4621.537522	0.093259	0.469202	1140.086304
4621.538450	0.090319	0.469202	1223.901978
4621.539350	0.090282	0.469202	1305.155762
4621.540246	0.090205	0.469202	1385.979492
4621.541135	0.090139	0.469202	1466.113159
4621.542080	0.090183	0.469202	1551.336182
4621.542976	0.090304	0.469202	1632.248535
4621.543876	0.090223	0.469202	1713.449585
4621.544765	0.090187	0.469202	1793.625610
4621.545719	0.090326	0.469202	1879.796509
4622.542335	1.118778	0.478850	540.369812
4622.543256	0.566506	0.478850	1062.122070
4622.544161	0.092267	0.478850	1145.623535
4622.545054	0.090256	0.478850	1226.222412
4622.546007	0.090319	0.478850	1312.296021
4622.546917	0.090176	0.478850	1394.355957
4622.547808	0.090315	0.478850	1474.826538
4622.548740	0.090308	0.478850	1558.993286
4622.549639	0.090249	0.478850	1640.127197
4622.550535	0.090187	0.478850	1720.934570
4622.551423	0.090278	0.478850	1801.101685
4622.552358	0.090297	0.478850	1885.529053
4623.570390	1.098201	0.472444	497.484894
4623.571331	0.580902	0.472444	1044.113770
4623.572229	0.092750	0.472444	1127.403442
4623.573201	0.090187	0.472444	1215.064941
4623.574104	0.090209	0.472444	1296.523437
4623.575020	0.090275	0.472444	1379.214966
4623.575909	0.090275	0.472444	1459.469116
4623.576852	0.090143	0.472444	1544.473755
4623.577763	0.090125	0.472444	1626.577148
4623.578657	0.090319	0.472444	1707.322021
4623.579597	0.090242	0.472444	1792.149170
4623.580510	0.090253	0.472444	1874.549805
4624.580582	1.084391	0.478986	505.326141
4624.581502	0.600018	0.478986	1057.342896
4624.582395	0.092926	0.478986	1140.325806
4624.583315	0.090212	0.478986	1223.321167
4624.584264	0.090227	0.478986	1308.946655
4624.585183	0.090271	0.478986	1391.905762
4624.586072	0.090168	0.478986	1472.065552
4624.587006	0.090242	0.478986	1556.351318
4624.587947	0.090231	0.478986	1641.258423
4624.588847	0.090231	0.478986	1722.466064
4624.589771	0.090293	0.478986	1805.896729
4624.590708	0.090198	0.478986	1890.411987
4625.605082	1.074239	0.477488	478.036560
4625.605990	0.640529	0.477488	1059.636475
4625.606917	0.093534	0.477488	1146.342407
4625.607866	0.090194	0.477488	1231.936646
4625.608783	0.090179	0.477488	1314.631226
4625.609672	0.090260	0.477488	1394.872314
4625.610619	0.090231	0.477488	1480.320801
4625.611551	0.090234	0.477488	1564.419189
4625.612442	0.090223	0.477488	1644.808228
4625.613357	0.090198	0.477488	1727.339111
4625.614289	0.090187	0.477488	1811.393188
4625.615209	0.090238	0.477488	1894.412231
4626.616268	1.062788	0.481879	462.312836
4626.617199	0.650482	0.481879	1067.911743
4626.618124	0.092651	0.481879	1153.614258
4626.619046	0.090187	0.481879	1236.766479
4626.619932	0.090194	0.481879	1316.678467
4626.620879	0.090128	0.481879	1402.029785
4626.621816	0.090168	0.481879	1486.517578
4626.622706	0.090198	0.481879	1566.793579
4626.623631	0.090179	0.481879	1650.209595
4626.624565	0.090194	0.481879	1734.450928
4626.625503	0.090212	0.481879	1819.070190
4626.626397	0.090253	0.481879	1899.756104
4627.640264	1.059979	0.479353	460.030975
4627.641240	0.597583	0.479353	1043.271973
4627.642145	0.092355	0.479353	1126.853027
4627.643038	0.090198	0.479353	1207.399658
4627.643931	0.090172	0.479353	1287.923340
4627.644867	0.090289	0.479353	1372.434082
4627.645777	0.090253	0.479353	1454.563965
4627.646675	0.090234	0.479353	1535.594482
4627.647584	0.090231	0.479353	1617.614258
4627.648501	0.090275	0.479353	1700.396118
4627.649409	0.090245	0.479353	1782.338867
4627.650303	0.090242	0.479353	1863.014893
4628.653016	1.073346	0.480832	480.858948
4628.653922	0.647358	0.480832	1067.365723
4628.654809	0.093790	0.480832	1150.557739
4628.655771	0.090172	0.480832	1237.303345
4628.656666	0.090238	0.480832	1318.066406
4628.657553	0.090256	0.480832	1398.123779
4628.658488	0.090212	0.480832	1482.472412
4628.659395	0.090161	0.480832	1564.248535
4628.660297	0.090249	0.480832	1645.653198
4628.661188	0.090278	0.480832	1726.091187
4628.662120	0.090220	0.480832	1810.176025
4628.663033	0.090168	0.480832	1892.499878
4629.675523	1.093901	0.480558	540.387268
4629.676444	0.557542	0.480558	1053.883057
4629.677363	0.091798	0.480558	1138.245483
4629.678263	0.090227	0.480558	1219.449829
4629.679220	0.090150	0.480558	1305.723511
4629.680147	0.090212	0.480558	1389.350464
4629.681070	0.090245	0.480558	1472.646973
4629.681957	0.090205	0.480558	1552.658936
4629.682912	0.090143	0.480558	1638.745361
4629.683819	0.090201	0.480558	1720.558105
4629.684737	0.090260	0.480558	1803.416748
4629.685637	0.090176	0.480558	1884.574951
4630.688210	1.064528	0.486113	468.392151
4630.689105	0.667921	0.486113	1066.181641
4630.690056	0.093135	0.486113	1154.752808
4630.690985	0.090128	0.486113	1238.481934
4630.691883	0.090209	0.486113	1319.489380
4630.692797	0.090205	0.486113	1401.936768
4630.693736	0.090179	0.486113	1486.615234
4630.694669	0.090209	0.486113	1570.780029
4630.695572	0.090234	0.486113	1652.261719
4630.696491	0.090209	0.486113	1735.163574
4630.697438	0.090106	0.486113	1820.494141
4630.698358	0.090161	0.486113	1903.442383
4631.710209	1.090708	0.486962	537.719055
4631.711149	0.518108	0.486962	1024.740479
4631.712058	0.091930	0.486962	1108.304810
4631.712961	0.090267	0.486962	1189.816162
4631.713877	0.090289	0.486962	1272.521118
4631.714786	0.090260	0.486962	1354.567505
4631.715696	0.090198	0.486962	1436.647461
4631.716590	0.090300	0.486962	1517.375977
4631.717524	0.090249	0.486962	1601.668579
4631.718428	0.090333	0.486962	1683.329834
4631.719334	0.090319	0.486962	1765.158447
4631.720221	0.090165	0.486962	1845.134644
4632.722889	1.061327	0.488280	461.677185
4632.723830	0.651412	0.488280	1074.656250
4632.724737	0.092911	0.488280	1158.926880
4632.725648	0.090146	0.488280	1241.050293
4632.726543	0.090194	0.488280	1321.774048
4632.727473	0.090304	0.488280	1405.756714
4632.728379	0.090333	0.488280	1487.598633
4632.729281	0.090212	0.488280	1568.970215
4632.730171	0.090271	0.488280	1649.311401
4632.731113	0.090271	0.488280	1734.346680
4632.732017	0.090267	0.488280	1815.948364
4632.732909	0.090238	0.488280	1896.440674
4633.746383	1.073529	0.485335	476.646942
4633.747280	0.645223	0.485335	1055.412354
4633.748240	0.092406	0.485335	1144.122070
4633.749145	0.090205	0.485335	1225.757690
4633.750040	0.090282	0.485335	1306.560059
4633.750972	0.090245	0.485335	1390.668701
4633.751884	0.090260	0.485335	1472.985840
4633.752785	0.090172	0.485335	1554.230957
4633.753676	0.090198	0.485335	1634.597168
4633.754605	0.090198	0.485335	1718.390869
4633.755517	0.090176	0.485335	1800.631226
4633.756412	0.090234	0.485335	1881.390991
4634.758146	1.132800	0.491789	560.736084
4634.759072	0.546834	0.491789	1067.103882
4634.759998	0.091871	0.491789	1152.176758
4634.760890	0.090238	0.491789	1232.669067
4634.761844	0.090231	0.491789	1318.749146
4634.762740	0.090172	0.491789	1399.543335
4634.763629	0.090275	0.491789	1479.797485
4634.764565	0.090282	0.491789	1564.301392
4634.765479	0.090205	0.491789	1646.748779
4634.766379	0.090253	0.491789	1727.976196
4634.767271	0.090187	0.491789	1808.422852
4634.768198	0.090278	0.491789	1892.110840
4635.784153	1.068424	0.486431	471.175018
4635.785059	0.647300	0.486431	1057.628662
4635.786018	0.092644	0.486431	1146.474243
4635.786933	0.090172	0.486431	1228.981689
4635.787834	0.090209	0.486431	1310.259766
4635.788761	0.090209	0.486431	1393.883301
4635.789705	0.090209	0.486431	1479.040405
4635.790624	0.090201	0.486431	1561.935547
4635.791515	0.090216	0.486431	1642.318115
4635.792471	0.090187	0.486431	1728.536621
4635.793408	0.090227	0.486431	1813.079346
4635.794307	0.090253	0.486431	1894.216553
4636.792798	1.080000	0.493698	490.319977
4636.793737	0.594686	0.493698	1048.730347
4636.794629	0.092747	0.493698	1131.460327
4636.795549	0.090176	0.493698	1214.421997
4636.796480	0.090187	0.493698	1298.385864
4636.797393	0.090172	0.493698	1380.713013
4636.798281	0.090176	0.493698	1460.789062
4636.799209	0.090110	0.493698	1544.411011
4636.800138	0.090165	0.493698	1628.174072
4636.801059	0.090231	0.493698	1711.276611
4636.801955	0.090183	0.493698	1792.080688
4636.802896	0.090139	0.493698	1876.901611
4637.819910	1.146760	0.485117	572.233337
4637.820871	0.497465	0.485117	1050.296875
4637.821794	0.091333	0.485117	1134.597290
4637.822681	0.090201	0.485117	1214.605957
4637.823624	0.090238	0.485117	1299.700439
4637.824558	0.090249	0.485117	1383.993042
4637.825460	0.090201	0.485117	1465.354736
4637.826379	0.090205	0.485117	1548.253174
4637.827324	0.090289	0.485117	1633.576538
4637.828235	0.090278	0.485117	1715.820068
4637.829123	0.090205	0.485117	1795.922119
4637.830073	0.090172	0.485117	1881.585693
4638.827009	1.124150	0.497670	544.088806
4638.827922	0.569220	0.497670	1063.786621
4638.828825	0.092333	0.497670	1147.163086
4638.829715	0.090143	0.497670	1227.390137
4638.830664	0.090212	0.497670	1313.001709
4638.831577	0.090110	0.497670	1395.271973
4638.832480	0.090209	0.497670	1476.730469
4638.833408	0.090282	0.497670	1560.512207
4638.834319	0.090201	0.497670	1642.685669
4638.835218	0.090154	0.497670	1723.733887
4638.836106	0.090161	0.497670	1803.796997
4638.837033	0.090253	0.497670	1887.461182
4639.856591	1.083113	0.483937	479.818939
4639.857566	0.561346	0.483937	1027.131714
4639.858463	0.092351	0.483937	1109.970581
4639.859351	0.090264	0.483937	1190.124756
4639.860294	0.090242	0.483937	1275.222656
4639.861199	0.090201	0.483937	1356.854980
4639.862104	0.090128	0.483937	1438.421021
4639.862996	0.090205	0.483937	1518.883911
4639.863933	0.090297	0.483937	1603.491821
4639.864839	0.090154	0.483937	1685.171143
4639.865732	0.090150	0.483937	1765.675171
4639.866621	0.090256	0.483937	1845.913086
4640.860107	1.066102	0.504824	468.018951
4640.861083	0.559036	0.504824	1013.637695
4640.861987	0.092406	0.504824	1097.172729
4640.862877	0.090198	0.504824	1177.448730
4640.863782	0.090256	0.504824	1259.130737
4640.864722	0.090201	0.504824	1343.920044
4640.865625	0.090143	0.504824	1425.318970
4640.866534	0.090157	0.504824	1507.272095
4640.867431	0.090201	0.504824	1588.182739
4640.868381	0.090245	0.504824	1673.915771
4640.869304	0.090132	0.504824	1757.107422
4640.870195	0.090231	0.504824	1837.502930
4641.893366	1.110666	0.484936	536.451843
4641.894270	0.597700	0.484936	1076.772827
4641.895214	0.092520	0.484936	1164.111206
4641.896157	0.090165	0.484936	1249.136597
4641.897065	0.090190	0.484936	1331.029541
4641.897970	0.090256	0.484936	1412.711548
4641.898904	0.090165	0.484936	1496.925415
4641.899833	0.090242	0.484936	1580.760010
4641.900734	0.090282	0.484936	1662.104126
4641.901652	0.090190	0.484936	1744.898926
4641.902592	0.090183	0.484936	1829.671021
4641.903507	0.090157	0.484936	1912.165161
4642.894796	1.067959	0.511330	468.833984
4642.895773	0.577665	0.511330	1033.212402
4642.896708	0.091670	0.511330	1118.923828
4642.897625	0.090205	0.511330	1201.641846
4642.898519	0.090154	0.511330	1282.239380
4642.899449	0.090161	0.511330	1366.089233
4642.900388	0.090157	0.511330	1450.747070
4642.901287	0.090143	0.511330	1531.785522
4642.902206	0.090212	0.511330	1614.690674
4642.903144	0.090165	0.511330	1699.265259
4642.904080	0.090161	0.511330	1783.656128
4642.904977	0.090132	0.511330	1864.504395
4643.929594	1.109169	0.482870	541.274353
4643.930524	0.546962	0.482870	1049.948730
4643.931429	0.092007	0.482870	1133.214966
4643.932315	0.090168	0.482870	1213.104248
4643.933260	0.090300	0.482870	1298.437988
4643.934167	0.090245	0.482870	1380.290527
4643.935058	0.090132	0.482870	1460.598022
4643.935973	0.090264	0.482870	1543.189331
4643.936891	0.090267	0.482870	1626.054687
4643.937803	0.090132	0.482870	1708.254883
4643.938697	0.090216	0.482870	1788.908081
4643.939622	0.090282	0.482870	1872.418945
4644.928964	1.058470	0.517848	457.259247
4644.929927	0.602128	0.517848	1037.108154
4644.930843	0.092263	0.517848	1121.621216
4644.931746	0.090216	0.517848	1203.086304
4644.932638	0.090179	0.517848	1283.526367
4644.933580	0.090253	0.517848	1368.544434
4644.934474	0.090165	0.517848	1449.151733
4644.935391	0.090227	0.517848	1531.889893
4644.936286	0.090128	0.517848	1612.554565
4644.937221	0.090253	0.517848	1696.940796
4644.938119	0.090183	0.517848	1777.925171
4644.939014	0.090179	0.517848	1858.635742
4645.965286	1.109542	0.481001	517.046692
4645.966194	0.614648	0.481001	1075.147461
4645.967106	0.093300	0.481001	1160.236694
4645.968045	0.090165	0.481001	1244.901489
4645.968973	0.090143	0.481001	1328.554077
4645.969863	0.090337	0.481001	1408.953979
4645.970821	0.090194	0.481001	1495.359863
4645.971729	0.090117	0.481001	1577.186279
4645.972647	0.090242	0.481001	1660.028198
4645.973538	0.090220	0.481001	1740.413940
4645.974481	0.090231	0.481001	1825.501465
4645.975405	0.090198	0.481001	1908.844238
4646.963141	1.066007	0.525397	463.713043
4646.964137	0.551089	0.525397	1012.597534
4646.965039	0.092036	0.525397	1095.614136
4646.965964	0.090322	0.525397	1179.162231
4646.966853	0.090267	0.525397	1259.409912
4646.967796	0.090172	0.525397	1344.442261
4646.968715	0.090227	0.525397	1427.360962
4646.969642	0.090223	0.525397	1510.998047
4646.970536	0.090179	0.525397	1591.618408
4646.971491	0.090223	0.525397	1677.781738
4646.972430	0.090245	0.525397	1762.522095
4646.973332	0.090286	0.525397	1843.959717
4648.001533	1.132170	0.479039	553.631348
4648.002471	0.534532	0.479039	1055.022705
4648.003393	0.091750	0.479039	1139.616699
4648.004283	0.090220	0.479039	1219.912231
4648.005209	0.090183	0.479039	1303.421753
4648.006141	0.090132	0.479039	1387.424561
4648.007059	0.090249	0.479039	1470.273193
4648.007945	0.090205	0.479039	1550.194946
4648.008895	0.090220	0.479039	1635.903687
4648.009835	0.090216	0.479039	1720.706787
4648.010732	0.090161	0.479039	1801.581299
4648.011658	0.090253	0.479039	1885.155273
4648.998378	1.097007	0.531447	496.944092
4648.999352	0.529808	0.531447	1012.977417
4649.000274	0.091699	0.531447	1097.524048
4649.001165	0.090234	0.531447	1177.922852
4649.002118	0.090231	0.531447	1263.912720
4649.003057	0.090209	0.531447	1348.618774
4649.003952	0.090223	0.531447	1429.368652
4649.004883	0.090165	0.531447	1513.312134
4649.005813	0.090231	0.531447	1597.226685
4649.006736	0.090348	0.531447	1680.617798
4649.007623	0.090275	0.531447	1760.691406
4649.008554	0.090249	0.531447	1844.713257
4650.036691	1.083589	0.475244	484.364197
4650.037600	0.641455	0.475244	1067.446777
4650.038488	0.093794	0.475244	1150.735840
4650.039445	0.090275	0.475244	1237.128662
4650.040354	0.090264	0.475244	1319.178345
4650.041247	0.090249	0.475244	1399.770752
4650.042194	0.090271	0.475244	1485.257324
4650.043096	0.090326	0.475244	1566.731323
4650.043992	0.090264	0.475244	1647.607544
4650.044885	0.090260	0.475244	1728.209717
4650.045815	0.090311	0.475244	1812.199219
4650.046720	0.090348	0.475244	1893.964111
4651.034062	1.063707	0.536773	466.967529
4651.034960	0.667694	0.536773	1066.556885
4651.035908	0.092765	0.536773	1154.498047
4651.036819	0.090264	0.536773	1236.728271
4651.037721	0.090187	0.536773	1318.076782
4651.038637	0.090271	0.536773	1400.765015
4651.039542	0.090256	0.536773	1482.447021
4651.040454	0.090165	0.536773	1564.677368
4651.041344	0.090179	0.536773	1644.937012
4651.042284	0.090271	0.536773	1729.791748
4651.043184	0.090227	0.536773	1810.996094
4651.044090	0.090260	0.536773	1892.771729
4652.071893	1.069669	0.474209	468.515076
4652.072841	0.635522	0.474209	1070.990356
4652.073757	0.092655	0.474209	1155.862305
4652.074649	0.090146	0.474209	1236.272949
4652.075542	0.090216	0.474209	1316.835937
4652.076494	0.090245	0.474209	1402.749512
4652.077411	0.090231	0.474209	1485.491089
4652.078337	0.090278	0.474209	1569.088867
4652.079226	0.090183	0.474209	1649.261597
4652.080180	0.090187	0.474209	1735.299805
4652.081079	0.090198	0.474209	1816.387573
4652.081972	0.090172	0.474209	1896.911255
4653.069318	1.098728	0.540032	550.462769
4653.070251	0.530116	0.540032	1045.061035
4653.071150	0.091912	0.540032	1127.689575
4653.072038	0.090194	0.540032	1207.781982
4653.072983	0.090165	0.540032	1292.987671
4653.073884	0.090125	0.540032	1374.189819
4653.074804	0.090209	0.540032	1457.181885
4653.075703	0.090205	0.540032	1538.276245
4653.076656	0.090216	0.540032	1624.252197
4653.077558	0.090172	0.540032	1705.587402
4653.078454	0.090253	0.540032	1786.453857
4653.079392	0.090260	0.540032	1871.117798
4654.108117	1.084559	0.472328	485.882568
4654.109014	0.654910	0.472328	1073.336548
4654.109957	0.093073	0.472328	1161.103882
4654.110880	0.090264	0.472328	1244.417236
4654.111805	0.090125	0.472328	1327.782471
4654.112696	0.090179	0.472328	1408.132324
4654.113627	0.090190	0.472328	1492.099609
4654.114565	0.090220	0.472328	1576.725708
4654.115471	0.090245	0.472328	1658.488037
4654.116368	0.090205	0.472328	1739.401978
4654.117313	0.090168	0.472328	1824.611206
4654.118245	0.090205	0.472328	1908.682373
4655.105481	1.063729	0.539315	462.722198
4655.106414	0.650361	0.539315	1069.509399
4655.107339	0.092648	0.539315	1155.208496
4655.108261	0.090308	0.539315	1238.472168
4655.109152	0.090352	0.539315	1318.975464
4655.110074	0.090267	0.539315	1402.201904
4655.111010	0.090271	0.539315	1486.695557
4655.111927	0.090297	0.539315	1569.497559
4655.112816	0.090319	0.539315	1649.790771
4655.113738	0.090260	0.539315	1733.010498
4655.114666	0.090264	0.539315	1816.775146
4655.115587	0.090341	0.539315	1899.978760
4656.144382	1.111329	0.473629	536.772034
4656.145326	0.545541	0.473629	1051.762451
4656.146254	0.091747	0.473629	1136.903564
4656.147140	0.090172	0.473629	1216.796021
4656.148072	0.090205	0.473629	1300.867187
4656.149016	0.090179	0.473629	1385.996582
4656.149911	0.090289	0.473629	1466.805542
4656.150832	0.090157	0.473629	1549.840576
4656.151774	0.090227	0.473629	1634.834473
4656.152695	0.090278	0.473629	1717.980835
4656.153586	0.090227	0.473629	1798.373169
4656.154542	0.090212	0.473629	1884.616211
4657.141222	1.085720	0.541357	490.745514
4657.142187	0.539304	0.541357	1011.174072
4657.143110	0.091750	0.541357	1095.859741
4657.143998	0.090176	0.541357	1175.935791
4657.144953	0.090282	0.541357	1262.155029
4657.145880	0.090245	0.541357	1345.812500
4657.146779	0.090183	0.541357	1426.887085
4657.147705	0.090176	0.541357	1510.389893
4657.148646	0.090234	0.541357	1595.300415
4657.149565	0.090319	0.541357	1678.303223
4657.150454	0.090194	0.541357	1758.485718
4657.151386	0.090212	0.541357	1842.563721
4658.179038	1.087661	0.480449	488.359863
4658.179937	0.650512	0.480449	1073.169678
4658.180825	0.093915	0.480449	1156.566040
4658.181775	0.090271	0.480449	1242.323486
4658.182677	0.090267	0.480449	1323.744629
4658.183584	0.090308	0.480449	1405.653687
4658.184477	0.090293	0.480449	1486.285278
4658.185422	0.090363	0.480449	1571.677856
4658.186330	0.090256	0.480449	1653.630615
4658.187229	0.090282	0.480449	1734.794067
4658.188165	0.090333	0.480449	1819.345947
4658.189064	0.090289	0.480449	1900.515991
4659.177416	1.063788	0.541683	463.811493
4659.178385	0.627257	0.541683	1071.623535
4659.179297	0.092520	0.541683	1156.001343
4659.180194	0.090264	0.541683	1236.967896
4659.181081	0.090245	0.541683	1317.015503
4659.182000	0.090374	0.541683	1400.068848
4659.182933	0.090286	0.541683	1484.305298
4659.183839	0.090315	0.541683	1566.130615
4659.184730	0.090264	0.541683	1646.555542
4659.185669	0.090293	0.541683	1731.340576
4659.186574	0.090245	0.541683	1813.012573
4659.187498	0.090381	0.541683	1896.524536
4660.215238	1.063242	0.482841	462.510345
4660.216177	0.644894	0.482841	1068.065674
4660.217122	0.092406	0.482841	1155.389404
4660.218031	0.090267	0.482841	1237.442383
4660.218925	0.090293	0.482841	1318.164307
4660.219877	0.090220	0.482841	1404.053467
4660.220796	0.090293	0.482841	1487.032715
4660.221715	0.090308	0.482841	1570.025391
4660.222604	0.090260	0.482841	1650.266602
4660.223534	0.090264	0.482841	1734.211792
4660.224479	0.090231	0.482841	1819.479858
4660.225379	0.090337	0.482841	1900.783081
4661.212109	1.069384	0.546372	471.598114
4661.213048	0.644758	0.546372	1077.026123
4661.213989	0.092593	0.546372	1164.155884
4661.214907	0.090249	0.546372	1247.004517
4661.215799	0.090271	0.546372	1327.526245
4661.216723	0.090220	0.546372	1410.889282
4661.217661	0.090282	0.546372	1495.573730
4661.218578	0.090293	0.546372	1578.372437
4661.219473	0.090267	0.546372	1659.161743
4661.220419	0.090264	0.546372	1744.551147
4661.221361	0.090238	0.546372	1829.555420
4661.222278	0.090242	0.546372	1912.307007
4662.250994	1.089543	0.482660	521.891296
4662.251925	0.561947	0.482660	1045.063965
4662.252826	0.092314	0.482660	1128.239258
4662.253719	0.090212	0.482660	1208.798950
4662.254672	0.090366	0.482660	1294.917969
4662.255570	0.090319	0.482660	1376.024048
4662.256474	0.090315	0.482660	1457.668701
4662.257359	0.090271	0.482660	1537.558594
4662.258303	0.090344	0.482660	1622.843506
4662.259208	0.090267	0.482660	1704.535400
4662.260104	0.090198	0.482660	1785.352539
4662.261034	0.090341	0.482660	1869.369263
4663.248334	1.071866	0.545514	469.477478
4663.249266	0.645399	0.545514	1070.989502
4663.250167	0.093472	0.545514	1155.207520
4663.251106	0.090249	0.545514	1239.951416
4663.252011	0.090242	0.545514	1321.620117
4663.252917	0.090271	0.545514	1403.405640
4663.253810	0.090271	0.545514	1484.017578
4663.254756	0.090286	0.545514	1569.427734
4663.255665	0.090198	0.545514	1651.417480
4663.256562	0.090293	0.545514	1732.410278
4663.257451	0.090260	0.545514	1812.651367
4663.258384	0.090392	0.545514	1896.986938
4664.286172	1.078583	0.487446	486.440826
4664.287076	0.650358	0.487446	1074.364136
4664.287963	0.093871	0.487446	1157.627563
4664.288917	0.090135	0.487446	1243.616821
4664.289828	0.090198	0.487446	1325.786987
4664.290723	0.090271	0.487446	1406.579590
4664.291663	0.090308	0.487446	1491.468750
4664.292570	0.090234	0.487446	1573.311279
4664.293499	0.090256	0.487446	1657.159424
4664.294385	0.090322	0.487446	1737.184937
4664.295339	0.090234	0.487446	1823.268555
4664.296244	0.090355	0.487446	1905.040039
4665.283547	1.075858	0.545289	485.212006
4665.284449	0.651661	0.545289	1073.010620
4665.285410	0.093768	0.545289	1163.121948
4665.286313	0.090282	0.545289	1244.646606
4665.287221	0.090260	0.545289	1326.602661
4665.288124	0.090271	0.545289	1408.117432
4665.289061	0.090308	0.545289	1492.735718
4665.289975	0.090249	0.545289	1575.223389
4665.290896	0.090311	0.545289	1658.400024
4665.291788	0.090201	0.545289	1738.859741
4665.292746	0.090249	0.545289	1825.318359
4665.293673	0.090282	0.545289	1909.009766
4666.321358	1.069457	0.489335	471.630463
4666.322257	0.654009	0.489335	1059.584351
4666.323218	0.092611	0.489335	1148.583618
4666.324151	0.090179	0.489335	1232.721069
4666.325050	0.090271	0.489335	1313.874756
4666.325973	0.090282	0.489335	1397.205078
4666.326898	0.090176	0.489335	1480.617676
4666.327835	0.090253	0.489335	1565.184448
4666.328724	0.090264	0.489335	1645.428833
4666.329644	0.090286	0.489335	1728.491577
4666.330580	0.090234	0.489335	1812.950928
4666.331501	0.090286	0.489335	1896.104004
4667.318253	1.113527	0.543879	528.925110
4667.319155	0.610345	0.543879	1079.456665
4667.320094	0.092432	0.543879	1166.250000
4667.321030	0.090135	0.543879	1250.616821
4667.321946	0.090183	0.543879	1333.224609
4667.322844	0.090121	0.543879	1414.153076
4667.323793	0.090103	0.543879	1499.660400
4667.324725	0.090143	0.543879	1583.673462
4667.325626	0.090157	0.543879	1664.905396
4667.326546	0.090121	0.543879	1747.816528
4667.327486	0.090190	0.543879	1832.595581
4667.328399	0.090157	0.543879	1914.909302
4668.357066	1.072822	0.490999	470.968964
4668.358058	0.525835	0.490999	992.597168
4668.358962	0.091813	0.490999	1075.595947
4668.359850	0.090253	0.490999	1155.740356
4668.360780	0.090311	0.490999	1239.729858
4668.361685	0.090300	0.490999	1321.451660
4668.362589	0.090264	0.490999	1403.050049
4668.363475	0.090289	0.490999	1483.046387
4668.364417	0.090348	0.490999	1568.154053
4668.365329	0.090282	0.490999	1650.491211
4668.366228	0.090223	0.490999	1731.602051
4668.367116	0.090223	0.490999	1811.720459
4669.353926	1.063037	0.538590	463.484192
4669.354905	0.559391	0.538590	1011.127869
4669.355804	0.092325	0.538590	1094.128418
4669.356696	0.090231	0.538590	1174.614258
4669.357615	0.090319	0.538590	1257.617065
4669.358546	0.090275	0.538590	1341.662720
4669.359453	0.090264	0.538590	1423.531860
4669.360344	0.090245	0.538590	1503.940430
4669.361277	0.090308	0.538590	1588.197388
4669.362196	0.090194	0.538590	1671.085693
4669.363113	0.090260	0.538590	1753.854126
4669.364003	0.090234	0.538590	1834.162720
4670.391752	1.066164	0.497839	466.980042
4670.392745	0.565133	0.497839	1028.157227
4670.393666	0.091677	0.497839	1112.591919
4670.394557	0.090278	0.497839	1193.029907
4670.395480	0.090286	0.497839	1276.363525
4670.396427	0.090183	0.497839	1361.766968
4670.397351	0.090253	0.497839	1445.160400
4670.398243	0.090267	0.497839	1525.678833
4670.399178	0.090216	0.497839	1610.030884
4670.400110	0.090179	0.497839	1694.078125
4670.401024	0.090231	0.497839	1776.548950
4670.401916	0.090220	0.497839	1857.024902
4671.390692	1.078151	0.533590	486.245941
4671.391595	0.646117	0.533590	1069.689575
4671.392522	0.093695	0.533590	1156.544922
4671.393449	0.090209	0.533590	1240.168457
4671.394365	0.090275	0.533590	1322.859985
4671.395263	0.090278	0.533590	1403.929932
4671.396182	0.090256	0.533590	1486.875488
4671.397128	0.090267	0.533590	1572.268433
4671.398048	0.090264	0.533590	1655.311035
4671.398939	0.090231	0.533590	1735.706543
4671.399891	0.090231	0.533590	1821.606201
4671.400832	0.090271	0.533590	1906.551270
4672.426436	1.061265	0.503761	462.711395
4672.427413	0.557878	0.503761	1007.758545
4672.428328	0.092021	0.503761	1091.958252
4672.429229	0.090146	0.503761	1173.180176
4672.430117	0.090212	0.503761	1253.288818
4672.431060	0.090209	0.503761	1338.355713
4672.431954	0.090128	0.503761	1418.930298
4672.432845	0.090249	0.503761	1499.342163
4672.433772	0.090242	0.503761	1582.996216
4672.434682	0.090176	0.503761	1665.056152
4672.435586	0.090205	0.503761	1746.601562
4672.436479	0.090212	0.503761	1827.161255
4673.428464	1.098596	0.527939	508.650055
4673.429403	0.573435	0.527939	1047.105591
4673.430298	0.092688	0.527939	1130.061279
4673.431265	0.090234	0.527939	1217.317871
4673.432161	0.090220	0.527939	1298.154785
4673.433050	0.090271	0.527939	1378.405762
4673.433974	0.090315	0.527939	1461.856812
4673.434894	0.090264	0.527939	1544.899414
4673.435805	0.090154	0.527939	1627.029541
4673.436693	0.090242	0.527939	1707.164185
4673.437628	0.090333	0.527939	1791.625732
4673.438541	0.090238	0.527939	1874.013062
4674.461686	1.088591	0.506520	521.435181
4674.462622	0.573955	0.506520	1058.657104
4674.463548	0.091890	0.506520	1143.746948
4674.464437	0.090352	0.506520	1224.069458
4674.465355	0.090238	0.506520	1306.907959
4674.466290	0.090231	0.506520	1391.273682
4674.467204	0.090267	0.506520	1473.778076
4674.468103	0.090297	0.506520	1554.954712
4674.469059	0.090198	0.506520	1641.183716
4674.469997	0.090231	0.506520	1725.820068
4674.470899	0.090308	0.506520	1807.277588
4674.471815	0.090216	0.506520	1889.915527
4675.464150	1.079619	0.529844	483.669373
4675.465046	0.648036	0.529844	1064.309570
4675.466021	0.092666	0.529844	1154.658936
4675.466961	0.090264	0.529844	1239.506836
4675.467858	0.090278	0.529844	1320.486450
4675.468774	0.090168	0.529844	1403.080811
4675.469712	0.090223	0.529844	1487.710327
4675.470630	0.090256	0.529844	1570.565674
4675.471526	0.090168	0.529844	1651.356567
4675.472461	0.090190	0.529844	1735.684570
4675.473385	0.090183	0.529844	1819.013794
4675.474311	0.090150	0.529844	1902.492798
4676.495819	1.074866	0.511302	472.940918
4676.496793	0.550422	0.511302	1009.052307
4676.497697	0.092227	0.511302	1092.425171
4676.498594	0.090227	0.511302	1173.358887
4676.499532	0.090271	0.511302	1258.033081
4676.500434	0.090330	0.511302	1339.510376
4676.501323	0.090143	0.511302	1419.647339
4676.502209	0.090198	0.511302	1499.562500
4676.503154	0.090308	0.511302	1584.903198
4676.504059	0.090234	0.511302	1666.565308
4676.504967	0.090198	0.511302	1748.464844
4676.505855	0.090220	0.511302	1828.579956
4677.503505	1.135624	0.525663	572.354431
4677.504432	0.527197	0.525663	1061.066284
4677.505330	0.092003	0.525663	1143.685181
4677.506221	0.090267	0.525663	1224.113403
4677.507179	0.090359	0.525663	1310.677246
4677.508084	0.090249	0.525663	1392.352661
4677.508980	0.090282	0.525663	1473.245361
4677.509913	0.090337	0.525663	1557.529663
4677.510816	0.090278	0.525663	1639.051025
4677.511711	0.090234	0.525663	1719.810791
4677.512601	0.090238	0.525663	1800.122681
4677.513533	0.090286	0.525663	1884.268921
4678.529993	1.065011	0.518230	466.474823
4678.530990	0.550360	0.518230	1015.183838
4678.531885	0.092021	0.518230	1097.543091
4678.532794	0.090297	0.518230	1179.622681
4678.533694	0.090300	0.518230	1260.892944
4678.534639	0.090271	0.518230	1346.198975
4678.535562	0.090275	0.518230	1429.522461
4678.536461	0.090326	0.518230	1510.725464
4678.537405	0.090267	0.518230	1595.937866
4678.538311	0.090201	0.518230	1677.660400
4678.539230	0.090242	0.518230	1760.592529
4678.540124	0.090249	0.518230	1841.275146
4679.539669	1.073320	0.525808	478.700897
4679.540563	0.660033	0.525808	1068.770386
4679.541532	0.092692	0.525808	1158.588623
4679.542450	0.090209	0.525808	1241.400269
4679.543374	0.090264	0.525808	1324.803955
4679.544265	0.090227	0.525808	1405.196289
4679.545203	0.090278	0.525808	1489.877319
4679.546134	0.090209	0.525808	1573.861694
4679.547032	0.090242	0.525808	1654.898682
4679.547944	0.090165	0.525808	1737.129028
4679.548876	0.090271	0.525808	1821.261597
4679.549813	0.090271	0.525808	1905.845459
4680.565235	1.127710	0.520812	541.300720
4680.566192	0.521169	0.520812	1040.059814
4680.567110	0.091483	0.520812	1124.041382
4680.568004	0.090245	0.520812	1204.720703
4680.568950	0.090231	0.520812	1290.078979
4680.569885	0.090249	0.520812	1374.461792
4680.570784	0.090275	0.520812	1455.618652
4680.571719	0.090227	0.520812	1539.980957
4680.572647	0.090205	0.520812	1623.691284
4680.573558	0.090330	0.520812	1705.981567
4680.574453	0.090150	0.520812	1786.665894
4680.575395	0.090282	0.520812	1871.711548
4681.576406	1.080095	0.526625	480.642365
4681.577327	0.630688	0.526625	1061.506348
4681.578228	0.093300	0.526625	1145.569214
4681.579174	0.090245	0.526625	1230.941284
4681.580069	0.090388	0.526625	1311.838745
4681.580969	0.090212	0.526625	1393.029907
4681.581856	0.090220	0.526625	1473.054810
4681.582788	0.090341	0.526625	1557.252197
4681.583690	0.090352	0.526625	1638.749268
4681.584591	0.090154	0.526625	1719.977783
4681.585504	0.090216	0.526625	1802.345093
4681.586434	0.090344	0.526625	1886.365234
4682.600916	1.069292	0.518826	475.834930
4682.601818	0.654214	0.518826	1065.935791
4682.602750	0.093816	0.518826	1153.372192
4682.603660	0.090242	0.518826	1235.492187
4682.604564	0.090260	0.518826	1317.087280
4682.605454	0.090271	0.518826	1397.428467
4682.606402	0.090267	0.518826	1483.001953
4682.607309	0.090293	0.518826	1564.897705
4682.608201	0.090300	0.518826	1645.445557
4682.609089	0.090286	0.518826	1725.619263
4682.610041	0.090293	0.518826	1811.578125
4682.610946	0.090216	0.518826	1893.223633
4683.612617	1.065692	0.525376	466.773163
4683.613599	0.566627	0.525376	1023.201050
4683.614493	0.092333	0.525376	1105.746582
4683.615381	0.090190	0.525376	1185.835693
4683.616318	0.090260	0.525376	1270.409302
4683.617238	0.090249	0.525376	1353.438354
4683.618144	0.090183	0.525376	1435.144287
4683.619035	0.090209	0.525376	1515.520264
4683.619971	0.090253	0.525376	1599.996826
4683.620888	0.090212	0.525376	1682.721558
4683.621805	0.090245	0.525376	1765.476562
4683.622694	0.090220	0.525376	1845.681885
4684.635597	1.068453	0.521795	467.982544
4684.636499	0.647318	0.521795	1051.863525
4684.637461	0.092336	0.521795	1140.691162
4684.638389	0.090275	0.521795	1224.466064
4684.639277	0.090260	0.521795	1304.616943
4684.640206	0.090227	0.521795	1388.437866
4684.641118	0.090253	0.521795	1470.748291
4684.642037	0.090278	0.521795	1553.714111
4684.642927	0.090260	0.521795	1634.045532
4684.643868	0.090187	0.521795	1718.911255
4684.644779	0.090231	0.521795	1801.111450
4684.645674	0.090297	0.521795	1881.926880
4685.647848	1.083662	0.525844	499.568207
4685.648763	0.611843	0.525844	1059.404785
4685.649658	0.092974	0.525844	1142.616211
4685.650581	0.090216	0.525844	1225.885620
4685.651525	0.090293	0.525844	1311.122192
4685.652441	0.090286	0.525844	1393.823853
4685.653330	0.090278	0.525844	1474.081299
4685.654280	0.090260	0.525844	1559.828369
4685.655213	0.090260	0.525844	1644.041016
4685.656102	0.090216	0.525844	1724.243042
4685.657016	0.090282	0.525844	1806.760742
4685.657948	0.090297	0.525844	1890.917236
4686.670795	1.067552	0.525087	470.790619
4686.671792	0.563577	0.525087	1032.676514
4686.672721	0.091674	0.525087	1117.841309
4686.673613	0.090212	0.525087	1198.310791
4686.674542	0.090154	0.525087	1282.063721
4686.675474	0.090264	0.525087	1366.189453
4686.676394	0.090238	0.525087	1449.208496
4686.677291	0.090234	0.525087	1530.148682
4686.678229	0.090179	0.525087	1614.737061
4686.679162	0.090231	0.525087	1698.922363
4686.680064	0.090201	0.525087	1780.284058
4686.680975	0.090172	0.525087	1862.430908
4687.683540	1.080809	0.531584	486.364166
4687.684436	0.653562	0.531584	1071.955688
4687.685378	0.092809	0.531584	1159.381592
4687.686290	0.090190	0.531584	1241.635254
4687.687191	0.090179	0.531584	1322.886963
4687.688079	0.090271	0.531584	1403.047607
4687.689025	0.090297	0.531584	1488.468262
4687.689927	0.090176	0.531584	1569.806763
4687.690819	0.090183	0.531584	1650.250122
4687.691751	0.090245	0.531584	1734.358765
4687.692666	0.090333	0.531584	1817.013672
4687.693559	0.090311	0.531584	1897.661621
4688.706541	1.098116	0.524224	505.133545
4688.707437	0.638452	0.524224	1077.186646
4688.708325	0.093735	0.524224	1160.423584
4688.709284	0.090245	0.524224	1246.968872
4688.710179	0.090157	0.524224	1327.659790
4688.711071	0.090220	0.524224	1408.135742
4688.712002	0.090267	0.524224	1492.174683
4688.712916	0.090216	0.524224	1574.632202
4688.713817	0.090205	0.524224	1655.906982
4688.714704	0.090223	0.524224	1735.935181
4688.715634	0.090308	0.524224	1819.921265
4688.716539	0.090227	0.524224	1901.576782
4689.717706	1.064015	0.533606	467.102539
4689.718599	0.671774	0.533606	1066.996338
4689.719571	0.092604	0.533606	1157.007202
4689.720465	0.090220	0.533606	1237.663574
4689.721357	0.090231	0.533606	1318.149414
4689.722278	0.090278	0.533606	1401.295776
4689.723207	0.090205	0.533606	1485.096313
4689.724111	0.090187	0.533606	1566.625122
4689.724999	0.090198	0.533606	1646.720703
4689.725934	0.090253	0.533606	1731.106934
4689.726849	0.090216	0.533606	1813.654663
4689.727770	0.090311	0.533606	1896.831299
4690.742227	1.078140	0.525989	480.850281
4690.743212	0.535572	0.525989	1008.389160
4690.744117	0.091886	0.525989	1091.546021
4690.745040	0.090176	0.525989	1174.778320
4690.745938	0.090234	0.525989	1255.808838
4690.746885	0.090150	0.525989	1341.181030
4690.747794	0.090201	0.525989	1423.174072
4690.748689	0.090205	0.525989	1503.907593
4690.749623	0.090139	0.525989	1588.097534
4690.750529	0.090234	0.525989	1669.849854
4690.751453	0.090183	0.525989	1753.179077
4690.752345	0.090322	0.525989	1833.746582
4691.752392	1.064440	0.538191	464.095703
4691.753335	0.626788	0.538191	1055.157104
4691.754283	0.092318	0.538191	1142.674683
4691.755201	0.090190	0.538191	1225.469482
4691.756088	0.090212	0.538191	1305.487915
4691.757023	0.090201	0.538191	1389.826294
4691.757957	0.090245	0.538191	1474.115479
4691.758860	0.090234	0.538191	1555.597168
4691.759782	0.090242	0.538191	1638.800049
4691.760715	0.090157	0.538191	1722.916992
4691.761653	0.090194	0.538191	1807.519043
4691.762556	0.090242	0.538191	1889.007324
4692.778971	1.075302	0.528144	479.584473
4692.779866	0.657689	0.528144	1068.216309
4692.780838	0.092772	0.528144	1158.390869
4692.781758	0.090256	0.528144	1241.426758
4692.782679	0.090278	0.528144	1324.573120
4692.783567	0.090253	0.528144	1404.717529
4692.784500	0.090216	0.528144	1488.889160
4692.785442	0.090146	0.528144	1573.807129
4692.786344	0.090315	0.528144	1655.271240
4692.787257	0.090212	0.528144	1737.635132
4692.788182	0.090253	0.528144	1821.118896
4692.789099	0.090183	0.528144	1903.816772
4693.787087	1.082201	0.543133	479.414978
4693.788074	0.541425	0.543133	1013.800964
4693.789006	0.091652	0.543133	1099.220215
4693.789899	0.090249	0.543133	1179.812622
4693.790814	0.090161	0.543133	1262.310059
4693.791749	0.090212	0.543133	1346.658691
4693.792665	0.090209	0.543133	1429.289917
4693.793559	0.090227	0.543133	1509.952881
4693.794509	0.090209	0.543133	1595.651123
4693.795444	0.090220	0.543133	1680.006592
4693.796343	0.090282	0.543133	1761.170044
4693.797259	0.090209	0.543133	1843.801270
4694.815705	1.087566	0.526581	486.141998
4694.816611	0.638760	0.526581	1064.858398
4694.817527	0.093710	0.526581	1150.696533
4694.818464	0.090388	0.526581	1235.390259
4694.819372	0.090190	0.526581	1317.283203
4694.820262	0.090315	0.526581	1397.663452
4694.821201	0.090253	0.526581	1482.410767
4694.822107	0.090249	0.526581	1564.176392
4694.823006	0.090212	0.526581	1645.277344
4694.823901	0.090223	0.526581	1726.027222
4694.824847	0.090278	0.526581	1811.430542
4694.825750	0.090286	0.526581	1892.958496
4695.820745	1.061953	0.545712	465.135437
4695.821733	0.556838	0.545712	1015.291687
4695.822642	0.092179	0.545712	1099.082397
4695.823538	0.090231	0.545712	1179.929077
4695.824424	0.090282	0.545712	1259.918945
4695.825375	0.090253	0.545712	1345.749268
4695.826279	0.090172	0.545712	1427.264893
4695.827171	0.090282	0.545712	1507.796387
4695.828104	0.090308	0.545712	1592.053345
4695.829024	0.090260	0.545712	1675.092529
4695.829926	0.090187	0.545712	1756.441040
4695.830817	0.090319	0.545712	1836.914917
4696.851397	1.062946	0.528547	462.381348
4696.852363	0.588406	0.528547	1030.781250
4696.853280	0.092344	0.528547	1115.460449
4696.854197	0.090172	0.528547	1198.148315
4696.855086	0.090333	0.528547	1278.454590
4696.856029	0.090253	0.528547	1363.562866
4696.856945	0.090278	0.528547	1446.257812
4696.857834	0.090245	0.528547	1526.485962
4696.858774	0.090253	0.528547	1611.323486
4696.859696	0.090220	0.528547	1694.506104
4696.860622	0.090278	0.528547	1778.103882
4696.861512	0.090227	0.528547	1858.406006
4697.855434	1.078835	0.552181	475.766388
4697.856423	0.539773	0.552181	1009.601807
4697.857348	0.091692	0.552181	1094.416748
4697.858240	0.090253	0.552181	1174.922119
4697.859156	0.090165	0.552181	1257.513062
4697.860093	0.090161	0.552181	1341.994019
4697.861020	0.090190	0.552181	1425.600586
4697.861920	0.090190	0.552181	1506.771973
4697.862841	0.090227	0.552181	1589.871094
4697.863779	0.090194	0.552181	1674.473145
4697.864690	0.090238	0.552181	1756.680054
4697.865576	0.090135	0.552181	1836.540161
4698.888139	1.064553	0.525759	467.338867
4698.889037	0.675359	0.525759	1073.811157
4698.889995	0.093109	0.525759	1163.009766
4698.890924	0.090157	0.525759	1246.766113
4698.891835	0.090216	0.525759	1328.953003
4698.892747	0.090216	0.525759	1411.230103
4698.893678	0.090231	0.525759	1495.234863
4698.894599	0.090220	0.525759	1578.327271
4698.895495	0.090260	0.525759	1659.200195
4698.896423	0.090146	0.525759	1742.856079
4698.897360	0.090234	0.525759	1827.405640
4698.898283	0.090179	0.525759	1910.641235
4699.889656	1.091510	0.560955	526.107849
4699.890604	0.537444	0.560955	1035.604614
4699.891523	0.091659	0.560955	1119.839111
4699.892419	0.090183	0.560955	1200.643188
4699.893377	0.090260	0.560955	1287.112305
4699.894314	0.090161	0.560955	1371.593262
4699.895228	0.090260	0.560955	1454.090942
4699.896118	0.090242	0.560955	1534.406006
4699.897067	0.090249	0.560955	1620.052368
4699.897995	0.090179	0.560955	1703.738892
4699.898910	0.090227	0.560955	1786.296631
4699.899820	0.090242	0.560955	1868.416626
4700.925914	1.085017	0.523346	488.257690
4700.926813	0.650288	0.523346	1072.866699
4700.927745	0.093223	0.523346	1159.750244
4700.928654	0.090187	0.523346	1241.729980
4700.929547	0.090242	0.523346	1322.315796
4700.930436	0.090238	0.523346	1402.537354
4700.931374	0.090286	0.523346	1487.225342
4700.932264	0.090223	0.523346	1567.524170
4700.933155	0.090216	0.523346	1647.906738
4700.934085	0.090337	0.523346	1731.920044
4700.935002	0.090234	0.523346	1814.664917
4700.935904	0.090249	0.523346	1896.069580
4701.925344	1.089606	0.563380	493.591370
4701.926254	0.632117	0.563380	1068.817627
4701.927142	0.093589	0.563380	1151.924561
4701.928083	0.090245	0.563380	1236.845459
4701.928993	0.090209	0.563380	1318.935425
4701.929914	0.090238	0.563380	1402.044678
4701.930802	0.090245	0.563380	1482.182617
4701.931758	0.090183	0.563380	1568.397705
4701.932652	0.090176	0.563380	1649.014893
4701.933540	0.090249	0.563380	1729.156006
4701.934475	0.090220	0.563380	1813.511475
4701.935389	0.090209	0.563380	1895.962280
4702.961100	1.068058	0.519805	466.741302
4702.962057	0.621793	0.519805	1061.797363
4702.963009	0.092040	0.519805	1149.419189
4702.963921	0.090201	0.519805	1231.682861
4702.964818	0.090253	0.519805	1312.639526
4702.965752	0.090205	0.519805	1396.891113
4702.966681	0.090256	0.519805	1480.739258
4702.967600	0.090216	0.519805	1563.647827
4702.968487	0.090231	0.519805	1643.682495
4702.969438	0.090220	0.519805	1729.481445
4702.970387	0.090212	0.519805	1815.093018
4702.971285	0.090231	0.519805	1896.120239
4703.959540	1.102570	0.570800	518.207703
4703.960455	0.602351	0.570800	1069.358887
4703.961345	0.093080	0.570800	1152.199951
4703.962275	0.090238	0.570800	1236.121338
4703.963215	0.090194	0.570800	1320.903809
4703.964124	0.090227	0.570800	1402.920166
4703.965022	0.090157	0.570800	1483.881592
4703.965965	0.090205	0.570800	1568.944946
4703.966901	0.090212	0.570800	1653.383789
4703.967801	0.090245	0.570800	1734.604614
4703.968717	0.090253	0.570800	1817.276123
4703.969654	0.090231	0.570800	1901.822266
4704.997343	1.073767	0.519358	483.195190
4704.998250	0.641169	0.519358	1064.735840
4704.999141	0.093600	0.519358	1148.133301
4705.000097	0.090231	0.519358	1234.393799
4705.001003	0.090271	0.519358	1316.179321
4705.001901	0.090205	0.519358	1397.183472
4705.002791	0.090183	0.519358	1477.446411
4705.003738	0.090344	0.519358	1563.002441
4705.004633	0.090234	0.519358	1643.762207
4705.005534	0.090278	0.519358	1725.103027
4705.006423	0.090227	0.519358	1805.314941
4705.007374	0.090289	0.519358	1891.180054
4705.995227	1.082260	0.574244	484.852264
4705.996123	0.650702	0.574244	1067.881104
4705.997078	0.092563	0.574244	1156.279175
4705.997981	0.090231	0.574244	1237.757568
4705.998878	0.090238	0.574244	1318.701050
4705.999798	0.090245	0.574244	1401.726807
4706.000715	0.090256	0.574244	1484.491821
4706.001623	0.090172	0.574244	1566.368164
4706.002519	0.090220	0.574244	1647.205078
4706.003449	0.090238	0.574244	1731.126465
4706.004352	0.090267	0.574244	1812.637817
4706.005258	0.090242	0.574244	1894.396729
4707.033033	1.065363	0.517090	467.694183
4707.034014	0.544691	0.517090	1002.036255
4707.034912	0.092117	0.517090	1084.757080
4707.035834	0.090209	0.517090	1167.929565
4707.036721	0.090179	0.517090	1247.918701
4707.037672	0.090231	0.517090	1333.728149
4707.038567	0.090209	0.517090	1414.464966
4707.039456	0.090190	0.517090	1494.644287
4707.040411	0.090249	0.517090	1580.832153
4707.041314	0.090212	0.517090	1662.293945
4707.042220	0.090223	0.517090	1744.036377
4707.043112	0.090227	0.517090	1824.518921
4708.030966	1.119573	0.576536	529.557922
4708.031882	0.585062	0.576536	1065.474854
4708.032806	0.092336	0.576536	1150.793701
4708.033694	0.090256	0.576536	1230.941284
4708.034656	0.090238	0.576536	1317.750244
4708.035555	0.090212	0.576536	1398.851196
4708.036442	0.090187	0.576536	1478.846802
4708.037368	0.090297	0.576536	1562.461426
4708.038277	0.090201	0.576536	1644.454468
4708.039198	0.090176	0.576536	1727.506348
4708.040094	0.090179	0.576536	1808.307129
4708.041041	0.090260	0.576536	1893.783325
4709.067778	1.121492	0.520966	555.138428
4709.068704	0.547870	0.520966	1062.465942
4709.069632	0.091750	0.520966	1147.610352
4709.070524	0.090249	0.520966	1228.112427
4709.071435	0.090161	0.520966	1310.249268
4709.072373	0.090201	0.520966	1394.858154
4709.073289	0.090245	0.520966	1477.522949
4709.074176	0.090212	0.520966	1557.541382
4709.075119	0.090179	0.520966	1642.580566
4709.076051	0.090275	0.520966	1726.716553
4709.076946	0.090231	0.520966	1807.473022
4709.077869	0.090212	0.520966	1890.739014
4710.066649	1.070706	0.583175	474.322540
4710.067544	0.667943	0.583175	1072.131592
4710.068504	0.093040	0.583175	1161.449585
4710.069436	0.090223	0.583175	1245.537842
4710.070331	0.090238	0.583175	1326.300903
4710.071239	0.090223	0.583175	1408.223755
4710.072173	0.090220	0.583175	1492.489014
4710.073111	0.090227	0.583175	1577.121948
4710.074009	0.090249	0.583175	1658.165527
4710.074927	0.090172	0.583175	1740.943481
4710.075862	0.090245	0.583175	1825.322876
4710.076775	0.090289	0.583175	1907.756958
4711.103467	1.102258	0.526493	512.550110
4711.104379	0.607852	0.526493	1066.910767
4711.105269	0.093168	0.526493	1149.830078
4711.106229	0.090293	0.526493	1236.511353
4711.107166	0.090297	0.526493	1321.119263
4711.108065	0.090271	0.526493	1402.272949
4711.108992	0.090286	0.526493	1485.967773
4711.109928	0.090212	0.526493	1570.406616
4711.110858	0.090293	0.526493	1654.379028
4711.111750	0.090249	0.526493	1734.881104
4711.112682	0.090304	0.526493	1819.044434
4711.113585	0.090315	0.526493	1900.598877
4712.102918	1.146976	0.583952	573.488159
4712.103846	0.529750	0.583952	1065.095947
4712.104747	0.091824	0.583952	1147.829102
4712.105639	0.090220	0.583952	1228.305054
4712.106588	0.090260	0.583952	1313.961792
4712.107490	0.090176	0.583952	1395.300293
4712.108387	0.090205	0.583952	1476.214233
4712.109324	0.090253	0.583952	1560.781006
4712.110223	0.090249	0.583952	1641.914917
4712.111123	0.090176	0.583952	1723.073120
4712.112013	0.090146	0.583952	1803.303467
4712.112939	0.090231	0.583952	1886.857056
4713.139140	1.058372	0.525429	457.216553
4713.140101	0.642012	0.525429	1074.189819
4713.141009	0.092402	0.525429	1158.091187
4713.141933	0.090194	0.525429	1241.430542
4713.142825	0.090260	0.525429	1321.942505
4713.143780	0.090231	0.525429	1408.112793
4713.144680	0.090205	0.525429	1489.297363
4713.145602	0.090132	0.525429	1572.398926
4713.146492	0.090205	0.525429	1652.681396
4713.147434	0.090176	0.525429	1737.626953
4713.148336	0.090194	0.525429	1818.982056
4713.149227	0.090260	0.525429	1899.403687
4714.138093	1.094546	0.591904	503.491089
4714.139007	0.614011	0.591904	1064.697266
4714.139895	0.093245	0.591904	1147.498535
4714.140858	0.090150	0.591904	1234.313110
4714.141757	0.090143	0.591904	1315.351562
4714.142644	0.090183	0.591904	1395.343994
4714.143552	0.090194	0.591904	1477.240234
4714.144487	0.090114	0.591904	1561.496338
4714.145409	0.090117	0.591904	1644.584351
4714.146297	0.090216	0.591904	1724.696167
4714.147236	0.090216	0.591904	1809.409058
4714.148147	0.090165	0.591904	1891.549194
4715.174391	1.099149	0.527516	529.789917
4715.175331	0.558798	0.527516	1055.059570
4715.176254	0.091893	0.527516	1139.877075
4715.177142	0.090176	0.527516	1219.953125
4715.178078	0.090179	0.527516	1304.361084
4715.179019	0.090212	0.527516	1389.250977
4715.179921	0.090238	0.527516	1470.645752
4715.180843	0.090271	0.527516	1553.875610
4715.181767	0.090176	0.527516	1637.197998
4715.182701	0.090242	0.527516	1721.483765
4715.183603	0.090275	0.527516	1802.911499
4715.184528	0.090245	0.527516	1886.388428
4716.172757	1.077415	0.587630	481.604279
4716.173651	0.659876	0.587630	1071.532959
4716.174599	0.092867	0.587630	1159.571289
4716.175546	0.090282	0.587630	1245.068359
4716.176463	0.090260	0.587630	1327.836792
4716.177350	0.090297	0.587630	1407.929932
4716.178285	0.090286	0.587630	1492.347046
4716.179215	0.090190	0.587630	1576.224121
4716.180114	0.090201	0.587630	1657.315186
4716.181042	0.090249	0.587630	1741.066284
4716.181978	0.090289	0.587630	1825.577026
4716.182890	0.090234	0.587630	1907.870728
4717.211604	1.077686	0.522375	482.803162
4717.212564	0.567708	0.522375	1027.802490
4717.213471	0.092325	0.522375	1111.541626
4717.214379	0.090275	0.522375	1193.510986
4717.215291	0.090242	0.522375	1275.811401
4717.216218	0.090256	0.522375	1359.479004
4717.217124	0.090201	0.522375	1441.201538
4717.218017	0.090223	0.522375	1521.770996
4717.218952	0.090227	0.522375	1606.133301
4717.219843	0.090256	0.522375	1686.551758
4717.220746	0.090322	0.522375	1768.112793
4717.221634	0.090267	0.522375	1848.270142
4718.208466	1.088785	0.586176	485.598297
4718.209444	0.543040	0.586176	1016.691040
4718.210357	0.092175	0.586176	1100.847046
4718.211247	0.090289	0.586176	1181.204468
4718.212187	0.090322	0.586176	1266.107422
4718.213078	0.090399	0.586176	1346.653076
4718.213976	0.090286	0.586176	1427.729614
4718.214863	0.090157	0.586176	1507.699341
4718.215797	0.090399	0.586176	1592.132202
4718.216703	0.090348	0.586176	1673.987427
4718.217606	0.090264	0.586176	1755.495483
4718.218509	0.090260	0.586176	1837.000244
4719.246332	1.118749	0.526787	545.949402
4719.247254	0.560676	0.526787	1062.892944
4719.248176	0.091890	0.526787	1147.615234
4719.249075	0.090227	0.526787	1228.729370
4719.250029	0.090190	0.526787	1314.770996
4719.250930	0.090194	0.526787	1396.035889
4719.251820	0.090242	0.526787	1476.350952
4719.252753	0.090366	0.526787	1560.662598
4719.253667	0.090304	0.526787	1643.200439
4719.254562	0.090264	0.526787	1723.986450
4719.255444	0.090271	0.526787	1803.605469
4719.256408	0.090227	0.526787	1890.584351
4720.244207	1.078290	0.583928	505.717896
4720.245118	0.614275	0.583928	1065.322266
4720.246006	0.093347	0.583928	1148.214600
4720.246970	0.090183	0.583928	1235.151123
4720.247900	0.090271	0.583928	1319.103149
4720.248791	0.090260	0.583928	1399.524780
4720.249709	0.090216	0.583928	1482.343140
4720.250642	0.090227	0.583928	1566.525024
4720.251556	0.090150	0.583928	1648.922241
4720.252451	0.090282	0.583928	1729.724609
4720.253384	0.090245	0.583928	1813.923584
4720.254298	0.090304	0.583928	1896.461426
4721.281009	1.116497	0.535814	529.219360
4721.281940	0.561720	0.535814	1052.180664
4721.282860	0.091915	0.535814	1136.742676
4721.283748	0.090168	0.535814	1216.812256
4721.284706	0.090194	0.535814	1303.218140
4721.285640	0.090264	0.535814	1387.524414
4721.286542	0.090249	0.535814	1468.929077
4721.287468	0.090253	0.535814	1552.503052
4721.288408	0.090231	0.535814	1637.319946
4721.289334	0.090179	0.535814	1720.826172
4721.290221	0.090187	0.535814	1800.821777
4721.291158	0.090205	0.535814	1885.343994
4722.279884	1.069768	0.583614	469.628174
4722.280845	0.579708	0.583614	1026.727783
4722.281780	0.092010	0.583614	1112.757568
4722.282702	0.090286	0.583614	1196.000977
4722.283594	0.090194	0.583614	1276.454102
4722.284542	0.090253	0.583614	1362.013672
4722.285467	0.090267	0.583614	1445.510986
4722.286366	0.090245	0.583614	1526.641602
4722.287291	0.090286	0.583614	1610.155762
4722.288228	0.090264	0.583614	1694.732788
4722.289163	0.090227	0.583614	1779.095093
4722.290060	0.090304	0.583614	1860.097778
4723.316683	1.061078	0.540422	462.629944
4723.317578	0.678724	0.540422	1070.088257
4723.318525	0.093051	0.540422	1158.207153
4723.319439	0.090271	0.540422	1240.714844
4723.320341	0.090205	0.540422	1322.079834
4723.321228	0.090293	0.540422	1402.169678
4723.322169	0.090304	0.540422	1487.145752
4723.323074	0.090249	0.540422	1568.821167
4723.323962	0.090249	0.540422	1648.962280
4723.324897	0.090315	0.540422	1733.406738
4723.325803	0.090308	0.540422	1815.225464
4723.326708	0.090322	0.540422	1896.967163
4724.315613	1.085500	0.578901	484.133209
4724.316546	0.617860	0.578901	1060.596680
4724.317438	0.093274	0.578901	1143.796997
4724.318385	0.090223	0.578901	1229.238525
4724.319286	0.090242	0.578901	1310.546265
4724.320180	0.090187	0.578901	1391.173218
4724.321069	0.090319	0.578901	1471.466431
4724.322017	0.090304	0.578901	1557.074585
4724.322924	0.090190	0.578901	1638.877319
4724.323823	0.090245	0.578901	1720.007935
4724.324754	0.090267	0.578901	1804.046875
4724.325655	0.090245	0.578901	1885.357910
4725.351939	1.125520	0.543774	560.508972
4725.352872	0.540956	0.543774	1065.220703
4725.353772	0.092106	0.543774	1148.115845
4725.354658	0.090205	0.543774	1228.037598
4725.355607	0.090348	0.543774	1313.777710
4725.356504	0.090245	0.543774	1394.727783
4725.357418	0.090198	0.543774	1477.168579
4725.358320	0.090220	0.543774	1558.546753
4725.359257	0.090234	0.543774	1643.096313
4725.360161	0.090256	0.543774	1724.687988
4725.361086	0.090242	0.543774	1808.161499
4725.361975	0.090264	0.543774	1888.405884
4726.352871	1.088730	0.571674	498.638550
4726.353771	0.633201	0.571674	1068.519165
4726.354663	0.093479	0.571674	1151.902466
4726.355596	0.090187	0.571674	1236.046753
4726.356502	0.090245	0.571674	1317.809082
4726.357417	0.090223	0.571674	1400.363525
4726.358309	0.090245	0.571674	1480.862427
4726.359273	0.090286	0.571674	1567.897827
4726.360178	0.090234	0.571674	1649.559937
4726.361068	0.090212	0.571674	1729.848999
4726.361992	0.090311	0.571674	1813.296631
4726.362909	0.090183	0.571674	1895.994507
4727.386591	1.084779	0.544390	487.065796
4727.387498	0.641250	0.544390	1068.679565
4727.388387	0.093669	0.544390	1151.951660
4727.389346	0.090172	0.544390	1238.426758
4727.390253	0.090209	0.544390	1320.246094
4727.391163	0.090216	0.544390	1402.342773
4727.392060	0.090168	0.544390	1483.223877
4727.393003	0.090183	0.544390	1568.266602
4727.393924	0.090201	0.544390	1651.342041
4727.394820	0.090212	0.544390	1732.172363
4727.395757	0.090223	0.544390	1816.711670
4727.396684	0.090271	0.544390	1900.392822
4728.390108	1.079323	0.569648	483.536499
4728.391013	0.644235	0.569648	1066.568848
4728.391899	0.093783	0.569648	1149.660522
4728.392856	0.090198	0.569648	1235.979736
4728.393777	0.090187	0.569648	1319.041748
4728.394669	0.090183	0.569648	1399.485107
4728.395599	0.090168	0.569648	1483.341797
4728.396523	0.090161	0.569648	1566.650635
4728.397436	0.090190	0.569648	1648.994507
4728.398335	0.090319	0.569648	1730.190918
4728.399271	0.090220	0.569648	1814.636597
4728.400185	0.090209	0.569648	1897.087402
4729.421780	1.070251	0.549180	470.910645
4729.422678	0.668903	0.549180	1071.585205
4729.423633	0.093036	0.549180	1160.434448
4729.424563	0.090150	0.549180	1244.274048
4729.425463	0.090271	0.549180	1325.517944
4729.426382	0.090260	0.549180	1408.466919
4729.427322	0.090227	0.549180	1493.280396
4729.428241	0.090187	0.549180	1576.161987
4729.429131	0.090209	0.549180	1656.447754
4729.430077	0.090157	0.549180	1741.736694
4729.430992	0.090139	0.549180	1824.213989
4729.431901	0.090238	0.549180	1906.240356
4730.425798	1.064865	0.569829	465.345795
4730.426791	0.561497	0.569829	1022.911865
4730.427716	0.091582	0.569829	1107.625244
4730.428611	0.090220	0.569829	1188.371948
4730.429529	0.090242	0.569829	1271.213867
4730.430468	0.090245	0.569829	1355.954224
4730.431399	0.090198	0.569829	1439.928345
4730.432299	0.090220	0.569829	1521.126099
4730.433215	0.090201	0.569829	1603.750610
4730.434150	0.090227	0.569829	1688.112915
4730.435074	0.090275	0.569829	1771.526733
4730.435972	0.090271	0.569829	1852.590088
4731.457021	1.099123	0.551786	539.669617
4731.457939	0.564752	0.551786	1058.112183
4731.458846	0.092380	0.551786	1141.901123
4731.459738	0.090275	0.551786	1222.426147
4731.460686	0.090260	0.551786	1307.992676
4731.461582	0.090326	0.551786	1388.924683
4731.462483	0.090183	0.551786	1470.179687
4731.463373	0.090212	0.551786	1550.468750
4731.464307	0.090315	0.551786	1634.822876
4731.465212	0.090275	0.551786	1716.521484
4731.466117	0.090234	0.551786	1798.183594
4731.467005	0.090227	0.551786	1878.305176
4732.464592	1.072189	0.566409	473.907410
4732.465515	0.639207	0.566409	1063.895020
4732.466417	0.093245	0.566409	1148.001709
4732.467346	0.090238	0.566409	1231.832886
4732.468241	0.090264	0.566409	1312.618896
4732.469140	0.090271	0.566409	1393.772461
4732.470026	0.090253	0.566409	1473.736328
4732.470965	0.090366	0.566409	1558.590210
4732.471857	0.090297	0.566409	1639.134766
4732.472760	0.090227	0.566409	1720.609741
4732.473650	0.090198	0.566409	1800.885742
4732.474597	0.090278	0.566409	1886.379272
4733.492182	1.080784	0.553599	483.110321
4733.493085	0.649453	0.553599	1069.566528
4733.494021	0.093329	0.553599	1156.922363
4733.494927	0.090300	0.553599	1238.734375
4733.495828	0.090212	0.553599	1320.015747
4733.496715	0.090293	0.553599	1400.105591
4733.497662	0.090297	0.553599	1485.616455
4733.498573	0.090183	0.553599	1567.773315
4733.499467	0.090267	0.553599	1648.472290
4733.500399	0.090344	0.553599	1732.673096
4733.501304	0.090341	0.553599	1814.431274
4733.502212	0.090194	0.553599	1896.327515
4734.500344	1.083479	0.568604	523.320374
4734.501270	0.565565	0.568604	1047.033691
4734.502174	0.092336	0.568604	1130.505859
4734.503080	0.090187	0.568604	1212.215088
4734.504030	0.090216	0.568604	1297.920410
4734.504934	0.090256	0.568604	1379.512207
4734.505835	0.090194	0.568604	1460.777100
4734.506723	0.090267	0.568604	1540.934448
4734.507666	0.090234	0.568604	1626.025513
4734.508573	0.090249	0.568604	1707.881348
4734.509470	0.090297	0.568604	1788.877441
4734.510361	0.090223	0.568604	1869.266479
4735.526857	1.066014	0.555509	469.046326
4735.527842	0.534789	0.555509	995.813293
4735.528740	0.091985	0.555509	1078.415649
4735.529663	0.090234	0.555509	1161.702026
4735.530566	0.090216	0.555509	1243.167114
4735.531510	0.090187	0.555509	1328.303467
4735.532413	0.090194	0.555509	1409.748779
4735.533340	0.090201	0.555509	1493.365479
4735.534226	0.090234	0.555509	1573.313110
4735.535172	0.090157	0.555509	1658.602051
4735.536068	0.090157	0.555509	1739.383179
4735.536960	0.090201	0.555509	1819.842896
4736.537598	1.091686	0.564761	534.926086
4736.538537	0.542413	0.564761	1044.252197
4736.539433	0.092113	0.564761	1126.785522
4736.540324	0.090216	0.564761	1207.168091
4736.541256	0.090282	0.564761	1291.310913
4736.542151	0.090168	0.564761	1372.011719
4736.543065	0.090150	0.564761	1454.408936
4736.543959	0.090190	0.564761	1535.039185
4736.544897	0.090212	0.564761	1619.658447
4736.545807	0.090176	0.564761	1701.718384
4736.546733	0.090117	0.564761	1785.166870
4736.547622	0.090209	0.564761	1865.362427
4737.561602	1.100555	0.559879	541.473267
4737.562534	0.539187	0.559879	1043.995605
4737.563456	0.091692	0.559879	1128.535522
4737.564353	0.090238	0.559879	1209.479004
4737.565267	0.090245	0.559879	1291.963257
4737.566212	0.090135	0.559879	1377.141357
4737.567127	0.090256	0.559879	1459.725952
4737.568017	0.090220	0.559879	1540.021484
4737.568963	0.090150	0.559879	1625.303467
4737.569888	0.090132	0.559879	1708.675415
4737.570786	0.090179	0.559879	1789.656494
4737.571717	0.090223	0.559879	1873.654419
4738.572280	1.125549	0.568621	549.268066
4738.573239	0.515028	0.568621	1043.179932
4738.574154	0.091567	0.568621	1126.964111
4738.575041	0.090168	0.568621	1206.943481
4738.575992	0.090176	0.568621	1292.700684
4738.576927	0.090179	0.568621	1377.018433
4738.577816	0.090194	0.568621	1457.200928
4738.578732	0.090139	0.568621	1539.768433
4738.579670	0.090135	0.568621	1624.315552
4738.580609	0.090209	0.568621	1709.021606
4738.581505	0.090187	0.568621	1789.828979
4738.582426	0.090157	0.568621	1872.864014
4739.597771	1.065179	0.556084	466.548615
4739.598666	0.666156	0.556084	1062.758179
4739.599639	0.092805	0.556084	1153.057617
4739.600572	0.090165	0.556084	1237.181396
4739.601474	0.090205	0.556084	1318.546387
4739.602409	0.090198	0.556084	1402.881226
4739.603343	0.090114	0.556084	1487.047241
4739.604273	0.090157	0.556084	1570.893677
4739.605176	0.090308	0.556084	1652.441406
4739.606096	0.090154	0.556084	1735.382935
4739.607037	0.090209	0.556084	1820.269409
4739.607957	0.090242	0.556084	1903.291748
4740.607949	1.067915	0.570707	470.950562
4740.608839	0.671115	0.570707	1068.242432
4740.609812	0.093010	0.570707	1158.741455
4740.610751	0.090172	0.570707	1243.413086
4740.611648	0.090209	0.570707	1324.330322
4740.612562	0.090187	0.570707	1406.760986
4740.613492	0.090300	0.570707	1490.740234
4740.614422	0.090172	0.570707	1574.600342
4740.615318	0.090253	0.570707	1655.466797
4740.616243	0.090216	0.570707	1738.916626
4740.617178	0.090256	0.570707	1823.306274
4740.618092	0.090256	0.570707	1905.800537
4741.632464	1.063345	0.561350	464.681641
4741.633430	0.569308	0.561350	1014.633057
4741.634333	0.092395	0.561350	1098.065796
4741.635236	0.090198	0.561350	1179.514404
4741.636129	0.090242	0.561350	1260.100220
4741.637061	0.090253	0.561350	1344.215698
4741.637966	0.090183	0.561350	1425.831421
4741.638867	0.090231	0.561350	1507.129272
4741.639791	0.090293	0.561350	1590.559937
4741.640691	0.090227	0.561350	1671.764282
4741.641599	0.090209	0.561350	1753.673828
4741.642491	0.090333	0.561350	1834.251099
4742.644179	1.079264	0.569559	478.113922
4742.645087	0.645908	0.569559	1064.598633
4742.645980	0.093677	0.569559	1148.251953
4742.646918	0.090238	0.569559	1232.895264
4742.647830	0.090205	0.569559	1315.162354
4742.648735	0.090209	0.569559	1396.801270
4742.649622	0.090190	0.569559	1476.800171
4742.650561	0.090121	0.569559	1561.423584
4742.651456	0.090179	0.569559	1642.134155
4742.652343	0.090227	0.569559	1722.165527
4742.653270	0.090242	0.569559	1805.819580
4742.654193	0.090198	0.569559	1889.072144
4743.668689	1.074441	0.560934	474.902893
4743.669587	0.667496	0.560934	1074.314575
4743.670529	0.093541	0.560934	1162.430420
4743.671437	0.090212	0.560934	1244.343262
4743.672358	0.090201	0.560934	1327.418701
4743.673258	0.090311	0.560934	1408.698853
4743.674219	0.090146	0.560934	1495.329590
4743.675124	0.090216	0.560934	1576.975098
4743.676013	0.090212	0.560934	1657.173950
4743.676932	0.090220	0.560934	1740.085937
4743.677849	0.090260	0.560934	1822.854370
4743.678742	0.090201	0.560934	1903.404297
4744.678867	1.068988	0.572460	471.423737
4744.679770	0.656909	0.572460	1064.612671
4744.680707	0.093853	0.572460	1152.552490
4744.681620	0.090187	0.572460	1234.893066
4744.682535	0.090150	0.572460	1317.380493
4744.683423	0.090242	0.572460	1397.515137
4744.684388	0.090165	0.572460	1484.524170
4744.685290	0.090157	0.572460	1565.846191
4744.686212	0.090157	0.572460	1648.971436
4744.687099	0.090146	0.572460	1728.931396
4744.688039	0.090231	0.572460	1813.748291
4744.688959	0.090128	0.572460	1896.666260
4745.704395	1.076832	0.558244	473.806213
4745.705374	0.545460	0.558244	1007.811768
4745.706298	0.091718	0.558244	1092.558716
4745.707195	0.090297	0.558244	1173.554810
4745.708114	0.090106	0.558244	1256.362427
4745.709053	0.090132	0.558244	1340.996216
4745.709967	0.090143	0.558244	1423.386719
4745.710853	0.090238	0.558244	1503.337646
4745.711803	0.090227	0.558244	1589.053345
4745.712736	0.090128	0.558244	1673.142944
4745.713635	0.090231	0.558244	1754.260376
4745.714565	0.090297	0.558244	1838.236206
4746.713553	1.065110	0.574872	464.387909
4746.714454	0.670525	0.574872	1068.530884
4746.715406	0.093116	0.574872	1157.177734
4746.716337	0.090245	0.574872	1241.196167
4746.717236	0.090253	0.574872	1322.333374
4746.718155	0.090293	0.574872	1405.312622
4746.719097	0.090212	0.574872	1490.292725
4746.720019	0.090238	0.574872	1573.492187
4746.720907	0.090297	0.574872	1653.675537
4746.721840	0.090187	0.574872	1737.819824
4746.722769	0.090194	0.574872	1821.610107
4746.723683	0.090304	0.574872	1904.147949
4747.740630	1.076825	0.562183	484.571259
4747.741531	0.650541	0.562183	1070.708496
4747.742472	0.093666	0.562183	1158.848022
4747.743371	0.090245	0.562183	1239.978638
4747.744267	0.090352	0.562183	1320.933594
4747.745156	0.090260	0.562183	1401.174805
4747.746100	0.090304	0.562183	1486.421753
4747.747005	0.090227	0.562183	1568.077271
4747.747907	0.090267	0.562183	1649.498413
4747.748794	0.090264	0.562183	1729.562256
4747.749744	0.090341	0.562183	1815.385742
4747.750651	0.090242	0.562183	1897.234985
4748.747722	1.068790	0.574675	470.267731
4748.748613	0.666910	0.574675	1064.484863
4748.749595	0.092476	0.574675	1155.295898
4748.750503	0.090146	0.574675	1237.148926
4748.751395	0.090242	0.574675	1317.644531
4748.752332	0.090179	0.574675	1402.142700
4748.753237	0.090275	0.574675	1483.841309
4748.754133	0.090212	0.574675	1564.671631
4748.755023	0.090231	0.574675	1644.976929
4748.755967	0.090392	0.574675	1730.306885
4748.756863	0.090330	0.574675	1811.242187
4748.757761	0.090231	0.574675	1892.269409
4749.776862	1.088027	0.561994	491.788361
4749.777777	0.624459	0.561994	1063.168579
4749.778672	0.093201	0.561994	1146.583252
4749.779626	0.090297	0.561994	1232.726196
4749.780538	0.090227	0.561994	1315.013306
4749.781442	0.090212	0.561994	1396.565308
4749.782335	0.090278	0.561994	1477.183838
4749.783266	0.090315	0.561994	1561.267090
4749.784180	0.090194	0.561994	1643.704468
4749.785097	0.090187	0.561994	1726.405762
4749.785985	0.090256	0.561994	1806.553345
4749.786936	0.090304	0.561994	1892.432373
4750.782411	1.071533	0.578627	473.617676
4750.783398	0.533013	0.578627	999.701172
4750.784295	0.092014	0.578627	1082.237915
4750.785214	0.090271	0.578627	1165.197021
4750.786106	0.090231	0.578627	1245.682861
4750.787054	0.090209	0.578627	1331.200684
4750.787949	0.090227	0.578627	1411.953857
4750.788837	0.090264	0.578627	1492.108032
4750.789762	0.090234	0.578627	1575.574829
4750.790673	0.090216	0.578627	1657.761719
4750.791592	0.090264	0.578627	1740.713989
4750.792482	0.090253	0.578627	1821.038818
4751.813067	1.078821	0.562167	474.681152
4751.814033	0.565737	0.562167	1021.183411
4751.814959	0.091934	0.562167	1106.313965
4751.815850	0.090216	0.562167	1186.696533
4751.816791	0.090190	0.562167	1271.565674
4751.817712	0.090183	0.562167	1354.624268
4751.818634	0.090220	0.562167	1437.806885
4751.819525	0.090286	0.562167	1518.251343
4751.820445	0.090165	0.562167	1601.203003
4751.821386	0.090209	0.562167	1686.089478
4751.822304	0.090249	0.562167	1768.938110
4751.823204	0.090198	0.562167	1850.116089
4752.816075	1.064344	0.585987	464.054169
4752.817013	0.637273	0.585987	1061.816162
4752.817947	0.092692	0.585987	1148.390137
4752.818864	0.090264	0.585987	1231.161865
4752.819757	0.090198	0.585987	1311.708496
4752.820693	0.090209	0.585987	1396.143921
4752.821631	0.090176	0.585987	1480.728760
4752.822528	0.090209	0.585987	1561.645996
4752.823441	0.090205	0.585987	1644.003174
4752.824375	0.090198	0.585987	1728.247925
4752.825301	0.090275	0.585987	1811.842285
4752.826198	0.090249	0.585987	1892.795654
4753.849310	1.078821	0.556842	483.311737
4753.850202	0.656711	0.556842	1069.098267
4753.851153	0.092845	0.556842	1157.394287
4753.852079	0.090201	0.556842	1240.920776
4753.852976	0.090297	0.556842	1321.916870
4753.853896	0.090205	0.556842	1404.905518
4753.854838	0.090212	0.556842	1489.885620
4753.855757	0.090256	0.556842	1572.831177
4753.856657	0.090242	0.556842	1654.048706
4753.857604	0.090300	0.556842	1739.563110
4753.858540	0.090190	0.556842	1823.981323
4753.859466	0.090256	0.556842	1907.558716
4754.850805	1.116339	0.589665	538.075439
4754.851764	0.529698	0.589665	1046.056274
4754.852684	0.091615	0.589665	1130.342041
4754.853571	0.090231	0.589665	1210.376709
4754.854525	0.090253	0.589665	1296.477783
4754.855463	0.090289	0.589665	1381.169189
4754.856372	0.090304	0.589665	1463.255493
4754.857266	0.090172	0.589665	1543.869385
4754.858208	0.090231	0.589665	1628.866699
4754.859134	0.090264	0.589665	1712.450806
4754.860033	0.090286	0.589665	1793.617554
4754.860952	0.090172	0.589665	1876.485718
4755.885094	1.135170	0.557470	603.910278
4755.886016	0.504126	0.557470	1068.714355
4755.886913	0.091747	0.557470	1151.011230
4755.887799	0.090201	0.557470	1230.929687
4755.888734	0.090271	0.557470	1315.333008
4755.889641	0.090194	0.557470	1397.139038
4755.890539	0.090333	0.557470	1478.258301
4755.891451	0.090209	0.557470	1560.528687
4755.892373	0.090359	0.557470	1643.839600
4755.893276	0.090212	0.557470	1725.301392
4755.894167	0.090245	0.557470	1805.709961
4755.895108	0.090249	0.557470	1890.634277
4756.885472	1.088423	0.598930	486.525024
4756.886395	0.624034	0.598930	1062.508789
4756.887288	0.093230	0.598930	1145.763184
4756.888240	0.090238	0.598930	1231.669800
4756.889140	0.090337	0.598930	1312.973022
4756.890032	0.090238	0.598930	1393.465332
4756.890925	0.090216	0.598930	1474.028320
4756.891860	0.090377	0.598930	1558.531006
4756.892765	0.090256	0.598930	1640.213013
4756.893666	0.090245	0.598930	1721.524048
4756.894555	0.090234	0.598930	1801.742432
4756.895508	0.090319	0.598930	1887.816040
4757.921228	1.071709	0.556544	471.551910
4757.922189	0.629158	0.556544	1076.172485
4757.923117	0.091904	0.556544	1161.459717
4757.924022	0.090293	0.556544	1243.174805
4757.924912	0.090267	0.556544	1323.512695
4757.925856	0.090245	0.556544	1408.704346
4757.926763	0.090216	0.556544	1490.530273
4757.927683	0.090194	0.556544	1573.508789
4757.928570	0.090183	0.556544	1653.501221
4757.929515	0.090260	0.556544	1738.796875
4757.930417	0.090194	0.556544	1820.151978
4757.931311	0.090278	0.556544	1900.860840
4758.920678	1.075129	0.597693	502.085419
4758.921587	0.608042	0.597693	1054.795654
4758.922516	0.093142	0.597693	1141.324707
4758.923439	0.090154	0.597693	1224.536621
4758.924364	0.090216	0.597693	1307.986450
4758.925253	0.090293	0.597693	1388.256836
4758.926199	0.090253	0.597693	1473.635864
4758.927106	0.090227	0.597693	1555.471802
4758.928023	0.090286	0.597693	1638.263794
4758.928915	0.090227	0.597693	1718.746338
4758.929858	0.090242	0.597693	1803.844238
4758.930782	0.090161	0.597693	1887.153076
4759.956982	1.110747	0.555392	535.380127
4759.957925	0.535525	0.555392	1040.380127
4759.958854	0.091578	0.555392	1125.456421
4759.959747	0.090201	0.555392	1206.006348
4759.960703	0.090179	0.555392	1292.217896
4759.961648	0.090161	0.555392	1377.420166
4759.962545	0.090201	0.555392	1458.330811
4759.963473	0.090179	0.555392	1542.017334
4759.964414	0.090194	0.555392	1626.890015
4759.965329	0.090165	0.555392	1709.390747
4759.966227	0.090143	0.555392	1790.338989
4759.967164	0.090172	0.555392	1874.830322
4760.956356	1.064286	0.601870	462.964355
4760.957302	0.602285	0.601870	1032.726074
4760.958254	0.092106	0.601870	1120.410645
4760.959171	0.090271	0.601870	1203.189209
4760.960060	0.090253	0.601870	1283.423828
4760.961015	0.090223	0.601870	1369.587158
4760.961947	0.090253	0.601870	1453.702637
4760.962849	0.090253	0.601870	1535.110596
4760.963774	0.090201	0.601870	1618.546875
4760.964715	0.090220	0.601870	1703.443604
4760.965637	0.090234	0.601870	1786.639648
4760.966524	0.090231	0.601870	1866.674316
4761.992660	1.083248	0.555057	488.544952
4761.993561	0.647329	0.555057	1071.788452
4761.994507	0.093164	0.555057	1159.921631
4761.995418	0.090249	0.555057	1242.138428
4761.996324	0.090275	0.555057	1323.927246
4761.997214	0.090220	0.555057	1404.222778
4761.998153	0.090300	0.555057	1489.014771
4761.999057	0.090249	0.555057	1570.599854
4761.999946	0.090231	0.555057	1650.814941
4762.000869	0.090260	0.555057	1734.124878
4762.001784	0.090238	0.555057	1816.692627
4762.002694	0.090103	0.555057	1898.685913
4762.991580	1.080520	0.610656	478.670380
4762.992513	0.616095	0.610656	1053.486938
4762.993407	0.093193	0.610656	1136.801758
4762.994357	0.090249	0.610656	1222.538330
4762.995256	0.090198	0.610656	1303.626099
4762.996147	0.090150	0.610656	1383.949829
4762.997038	0.090234	0.610656	1464.348633
4762.997967	0.090253	0.610656	1548.193359
4762.998870	0.090231	0.610656	1629.671631
4762.999779	0.090220	0.610656	1711.681396
4763.000670	0.090176	0.610656	1792.028076
4763.001621	0.090293	0.610656	1877.896729
4764.027856	1.079158	0.559275	479.146027
4764.028844	0.544167	0.559275	1016.783447
4764.029734	0.092065	0.559275	1098.721680
4764.030623	0.090249	0.559275	1178.953125
4764.031554	0.090220	0.559275	1262.947632
4764.032486	0.090179	0.559275	1346.994873
4764.033396	0.090176	0.559275	1429.054810
4764.034287	0.090278	0.559275	1509.492798
4764.035222	0.090249	0.559275	1593.875610
4764.036134	0.090143	0.559275	1676.085815
4764.037056	0.090231	0.559275	1759.278564
4764.037946	0.090117	0.559275	1839.482910
4765.027788	1.073339	0.609444	471.195648
4765.028763	0.560588	0.609444	1017.769287
4765.029666	0.092183	0.609444	1101.010254
4765.030557	0.090260	0.609444	1181.431885
4765.031481	0.090300	0.609444	1264.869385
4765.032415	0.090190	0.609444	1349.107300
4765.033317	0.090176	0.609444	1430.445801
4765.034202	0.090190	0.609444	1510.264282
4765.035146	0.090205	0.609444	1595.417847
4765.036052	0.090190	0.609444	1677.130371
4765.036977	0.090194	0.609444	1760.559937
4765.037865	0.090194	0.609444	1840.652344
4766.064584	1.063748	0.557241	464.857666
4766.065582	0.539806	0.557241	1003.583923
4766.066474	0.092054	0.557241	1085.696533
4766.067401	0.090216	0.557241	1169.326782
4766.068288	0.090253	0.557241	1249.380859
4766.069229	0.090172	0.557241	1334.232788
4766.070149	0.090264	0.557241	1417.275391
4766.071045	0.090289	0.557241	1498.174561
4766.071988	0.090187	0.557241	1583.220703
4766.072892	0.090253	0.557241	1664.809082
4766.073813	0.090271	0.557241	1747.948730
4766.074704	0.090209	0.557241	1828.324707
4767.063514	1.081457	0.611164	484.492950
4767.064413	0.656514	0.611164	1074.698730
4767.065314	0.093929	0.611164	1159.329102
4767.066263	0.090168	0.611164	1244.898926
4767.067206	0.090194	0.611164	1329.951904
4767.068106	0.090227	0.611164	1411.156250
4767.069027	0.090209	0.611164	1494.238525
4767.069960	0.090183	0.611164	1578.379395
4767.070876	0.090231	0.611164	1661.030762
4767.071762	0.090216	0.611164	1740.962158
4767.072706	0.090198	0.611164	1826.108887
4767.073642	0.090190	0.611164	1910.527100
4768.099829	1.132998	0.557152	544.972046
4768.100790	0.506726	0.557152	1031.935791
4768.101710	0.091520	0.557152	1116.134033
4768.102602	0.090176	0.557152	1196.570801
4768.103554	0.090227	0.557152	1282.466919
4768.104488	0.090264	0.557152	1366.773193
4768.105388	0.090209	0.557152	1447.961060
4768.106313	0.090187	0.557152	1531.383789
4768.107251	0.090231	0.557152	1616.020142
4768.108174	0.090176	0.557152	1699.252441
4768.109061	0.090231	0.557152	1779.287109
4768.109998	0.090216	0.557152	1863.819580
4769.099211	1.081941	0.608175	478.217865
4769.100204	0.538114	0.608175	1012.565063
4769.101140	0.091523	0.608175	1098.230957
4769.102047	0.090260	0.608175	1180.096802
4769.102972	0.090205	0.608175	1263.536499
4769.103911	0.090245	0.608175	1348.276855
4769.104824	0.090264	0.608175	1430.687622
4769.105712	0.090187	0.608175	1510.773437
4769.106658	0.090209	0.608175	1596.110840
4769.107591	0.090234	0.608175	1680.299561
4769.108505	0.090300	0.608175	1762.833984
4769.109395	0.090238	0.608175	1843.145874
4770.135503	1.068984	0.560926	469.284149
4770.136397	0.667346	0.560926	1065.891602
4770.137346	0.092776	0.560926	1153.935913
4770.138252	0.090319	0.560926	1235.764526
4770.139150	0.090289	0.560926	1316.844360
4770.140075	0.090264	0.560926	1400.338257
4770.140982	0.090363	0.560926	1482.297119
4770.141895	0.090278	0.560926	1564.721191
4770.142787	0.090190	0.560926	1645.171021
4770.143715	0.090377	0.560926	1729.041016
4770.144608	0.090256	0.560926	1809.639893
4770.145510	0.090304	0.560926	1891.094116
4771.134416	1.072936	0.612646	472.091705
4771.135320	0.665555	0.612646	1073.753784
4771.136208	0.094226	0.612646	1157.426514
4771.137162	0.090326	0.612646	1243.597412
4771.138064	0.090256	0.612646	1325.008667
4771.138960	0.090201	0.612646	1405.829102
4771.139865	0.090260	0.612646	1487.514404
4771.140799	0.090308	0.612646	1571.861694
4771.141702	0.090205	0.612646	1653.316895
4771.142602	0.090253	0.612646	1734.544312
4771.143528	0.090366	0.612646	1818.223389
4771.144431	0.090319	0.612646	1899.781128
4772.171745	1.088796	0.558747	488.869568
4772.172654	0.647271	0.558747	1077.238525
4772.173542	0.093885	0.558747	1160.608887
4772.174493	0.090234	0.558747	1246.421753
4772.175392	0.090264	0.558747	1327.568848
4772.176302	0.090267	0.558747	1409.712158
4772.177199	0.090231	0.558747	1490.649170
4772.178139	0.090271	0.558747	1575.503906
4772.179042	0.090267	0.558747	1657.015259
4772.179932	0.090209	0.558747	1737.301025
4772.180859	0.090315	0.558747	1821.022949
4772.181768	0.090154	0.558747	1902.972778
4773.171219	1.107356	0.604497	566.966248
4773.172139	0.525465	0.604497	1050.394043
4773.173060	0.091578	0.604497	1134.737671
4773.173954	0.090179	0.604497	1215.358154
4773.174904	0.090264	0.604497	1301.108643
4773.175821	0.090212	0.604497	1383.833374
4773.176739	0.090286	0.604497	1466.715576
4773.177622	0.090205	0.604497	1546.366699
4773.178573	0.090249	0.604497	1632.193481
4773.179481	0.090223	0.604497	1714.116333
4773.180374	0.090293	0.604497	1794.747925
4773.181309	0.090264	0.604497	1879.144409
4774.206930	1.088855	0.564814	489.984711
4774.207830	0.646278	0.564814	1071.635010
4774.208764	0.092842	0.564814	1158.349243
4774.209714	0.090220	0.564814	1244.057983
4774.210627	0.090319	0.564814	1326.518799
4774.211518	0.090322	0.564814	1406.995972
4774.212468	0.090227	0.564814	1492.711670
4774.213414	0.090238	0.564814	1578.076904
4774.214312	0.090242	0.564814	1659.113892
4774.215248	0.090271	0.564814	1743.607544
4774.216191	0.090322	0.564814	1828.781494
4774.217117	0.090278	0.564814	1912.379272
4775.206386	1.089305	0.606475	515.241455
4775.207295	0.610990	0.606475	1070.631348
4775.208238	0.092966	0.606475	1158.298584
4775.209172	0.090267	0.606475	1242.608276
4775.210092	0.090238	0.606475	1325.627319
4775.210991	0.090322	0.606475	1406.827026
4775.211919	0.090249	0.606475	1490.578125
4775.212844	0.090256	0.606475	1574.065186
4775.213778	0.090245	0.606475	1658.354370
4775.214678	0.090319	0.606475	1739.641113
4775.215628	0.090260	0.606475	1825.388184
4775.216559	0.090344	0.606475	1909.498657
4776.242120	1.070717	0.565555	468.973877
4776.243106	0.549346	0.565555	1010.628784
4776.244046	0.091688	0.565555	1096.815674
4776.244950	0.090267	0.565555	1178.417358
4776.245883	0.090220	0.565555	1262.592407
4776.246819	0.090231	0.565555	1347.048340
4776.247739	0.090253	0.565555	1430.080811
4776.248629	0.090201	0.565555	1510.360107
4776.249560	0.090304	0.565555	1594.433105
4776.250462	0.090366	0.565555	1675.943481
4776.251367	0.090245	0.565555	1757.615479
4776.252259	0.090216	0.565555	1838.088257
4777.242060	1.061986	0.606817	463.025940
4777.243026	0.597587	0.606817	1040.294678
4777.243929	0.092607	0.606817	1123.919189
4777.244825	0.090220	0.606817	1204.756104
4777.245715	0.090176	0.606817	1285.012573
4777.246654	0.090264	0.606817	1369.770142
4777.247559	0.090267	0.606817	1451.462036
4777.248456	0.090245	0.606817	1532.412109
4777.249379	0.090286	0.606817	1615.745728
4777.250285	0.090322	0.606817	1697.577637
4777.251193	0.090260	0.606817	1779.533691
4777.252088	0.090220	0.606817	1860.280396
4778.277346	1.084819	0.568250	487.083923
4778.278250	0.645956	0.568250	1071.027954
4778.279143	0.093552	0.568250	1154.570068
4778.280062	0.090220	0.568250	1237.481934
4778.281010	0.090220	0.568250	1323.010254
4778.281916	0.090179	0.568250	1404.712891
4778.282806	0.090187	0.568250	1484.979126
4778.283735	0.090410	0.568250	1568.970215
4778.284649	0.090187	0.568250	1651.400879
4778.285567	0.090238	0.568250	1734.239380
4778.286460	0.090227	0.568250	1814.812134
4778.287412	0.090220	0.568250	1900.701294
4779.278320	1.087284	0.602841	516.459900
4779.279237	0.589742	0.602841	1057.253662
4779.280131	0.092834	0.602841	1140.247681
4779.281101	0.090300	0.602841	1227.838989
4779.282026	0.090304	0.602841	1311.370117
4779.282919	0.090304	0.602841	1392.011597
4779.283826	0.090275	0.602841	1473.890747
4779.284765	0.090289	0.602841	1558.672363
4779.285684	0.090260	0.602841	1641.621338
4779.286571	0.090253	0.602841	1721.675415
4779.287521	0.090216	0.602841	1807.380615
4779.288443	0.090264	0.602841	1890.603760
4780.313077	1.117222	0.572697	536.266418
4780.313976	0.604746	0.572697	1079.933105
4780.314902	0.092344	0.572697	1165.443359
4780.315840	0.090187	0.572697	1250.038574
4780.316760	0.090253	0.572697	1333.071045
4780.317654	0.090227	0.572697	1413.734009
4780.318606	0.090187	0.572697	1499.591797
4780.319536	0.090249	0.572697	1583.523437
4780.320437	0.090245	0.572697	1664.834473
4780.321368	0.090275	0.572697	1748.880127
4780.322306	0.090267	0.572697	1833.550903
4780.323237	0.090271	0.572697	1917.593262
4781.315064	1.091301	0.600324	517.276794
4781.315988	0.575610	0.600324	1049.140747
4781.316902	0.092230	0.600324	1133.439209
4781.317799	0.090212	0.600324	1214.359741
4781.318752	0.090165	0.600324	1300.286743
4781.319687	0.090256	0.600324	1384.676392
4781.320588	0.090341	0.600324	1466.073242
4781.321504	0.090337	0.600324	1548.821899
4781.322441	0.090242	0.600324	1633.378418
4781.323355	0.090223	0.600324	1715.842529
4781.324243	0.090282	0.600324	1796.012939
4781.325175	0.090311	0.600324	1880.183105
4782.347729	1.076382	0.574027	482.219055
4782.348620	0.650109	0.574027	1061.465820
4782.349579	0.092509	0.574027	1150.181519
4782.350489	0.090260	0.574027	1232.318115
4782.351388	0.090238	0.574027	1313.442139
4782.352324	0.090322	0.574027	1397.983765
4782.353227	0.090333	0.574027	1479.554687
4782.354134	0.090256	0.574027	1561.417236
4782.355027	0.090337	0.574027	1642.088135
4782.355973	0.090330	0.574027	1727.539917
4782.356875	0.090260	0.574027	1808.954468
4782.357773	0.090187	0.574027	1889.942139
4783.351762	1.067655	0.597037	466.565216
4783.352658	0.663926	0.597037	1061.442749
4783.353606	0.092787	0.597037	1149.404663
4783.354517	0.090245	0.597037	1231.618164
4783.355414	0.090289	0.597037	1312.607666
4783.356344	0.090333	0.597037	1396.617554
4783.357255	0.090205	0.597037	1478.794434
4783.358157	0.090238	0.597037	1560.189209
4783.359044	0.090297	0.597037	1640.282349
4783.359999	0.090245	0.597037	1726.466675
4783.360895	0.090260	0.597037	1807.339600
4783.361808	0.090330	0.597037	1889.810547
4784.382415	1.068354	0.579658	469.007629
4784.383382	0.626499	0.579658	1074.832153
4784.384281	0.092139	0.579658	1157.664795
4784.385204	0.090205	0.579658	1240.924072
4784.386099	0.090205	0.579658	1321.657593
4784.387044	0.090212	0.579658	1406.908325
4784.387957	0.090282	0.579658	1489.335815
4784.388876	0.090227	0.579658	1572.254517
4784.389769	0.090264	0.579658	1652.859985
4784.390721	0.090333	0.579658	1738.857178
4784.391646	0.090212	0.579658	1822.303711
4784.392538	0.090264	0.579658	1902.818848
4785.388492	1.062308	0.596646	463.166412
4785.389388	0.675007	0.596646	1067.973022
4785.390342	0.092754	0.596646	1156.460205
4785.391255	0.090234	0.596646	1238.844238
4785.392181	0.090227	0.596646	1322.394531
4785.393076	0.090231	0.596646	1403.151001
4785.394006	0.090183	0.596646	1487.021240
4785.394942	0.090220	0.596646	1571.466919
4785.395864	0.090187	0.596646	1654.619141
4785.396750	0.090249	0.596646	1734.579834
4785.397701	0.090209	0.596646	1820.368408
4785.398623	0.090231	0.596646	1903.561157
4786.417658	1.106078	0.582353	534.235657
4786.418594	0.544387	0.582353	1043.782104
4786.419525	0.091641	0.582353	1129.099487
4786.420416	0.090205	0.582353	1209.472168
4786.421370	0.090135	0.582353	1295.461426
4786.422301	0.090114	0.582353	1379.357178
4786.423199	0.090198	0.582353	1460.354736
4786.424124	0.090223	0.582353	1543.811401
4786.425067	0.090146	0.582353	1628.819580
4786.425984	0.090278	0.582353	1711.604736
4786.426885	0.090154	0.582353	1792.833252
4786.427825	0.090238	0.582353	1877.656982
4787.425288	1.119855	0.595457	548.728882
4787.426222	0.545779	0.595457	1058.486328
4787.427109	0.092172	0.595457	1140.242554
4787.428033	0.090209	0.595457	1223.595459
4787.428977	0.090242	0.595457	1308.783569
4787.429893	0.090220	0.595457	1391.424805
4787.430786	0.090216	0.595457	1471.987793
4787.431732	0.090267	0.595457	1557.380737
4787.432669	0.090238	0.595457	1641.933838
4787.433570	0.090245	0.595457	1723.244873
4787.434489	0.090304	0.595457	1806.234253
4787.435420	0.090264	0.595457	1890.269775
4788.452312	1.078802	0.580887	480.067108
4788.453239	0.625591	0.580887	1059.989746
4788.454139	0.093091	0.580887	1143.771484
4788.455070	0.090286	0.580887	1227.827393
4788.455969	0.090311	0.580887	1309.017212
4788.456867	0.090201	0.580887	1390.018066
4788.457756	0.090223	0.580887	1470.226685
4788.458709	0.090352	0.580887	1556.331787
4788.459599	0.090264	0.580887	1636.666504
4788.460500	0.090238	0.580887	1717.970947
4788.461387	0.090289	0.580887	1798.057617
4788.462340	0.090366	0.580887	1884.176636
4789.461445	1.059701	0.595320	459.910156
4789.462421	0.559534	0.595320	1006.015015
4789.463328	0.092241	0.595320	1089.677734
4789.464227	0.090234	0.595320	1170.798462
4789.465115	0.090179	0.595320	1250.877808
4789.466066	0.090190	0.595320	1336.648926
4789.466963	0.090176	0.595320	1417.536621
4789.467850	0.090205	0.595320	1497.548584
4789.468786	0.090256	0.595320	1582.028564
4789.469696	0.090205	0.595320	1664.115234
4789.470603	0.090242	0.595320	1745.964478
4789.471490	0.090227	0.595320	1825.995850
4790.486998	1.082168	0.583493	483.729095
4790.487901	0.648424	0.583493	1069.256104
4790.488810	0.093864	0.583493	1154.578003
4790.489762	0.090154	0.583493	1240.404419
4790.490661	0.090242	0.583493	1321.531738
4790.491550	0.090183	0.583493	1401.704468
4790.492493	0.090227	0.583493	1486.788574
4790.493394	0.090198	0.583493	1568.056763
4790.494308	0.090223	0.583493	1650.520996
4790.495203	0.090172	0.583493	1731.225098
4790.496136	0.090194	0.583493	1815.376221
4790.497043	0.090187	0.583493	1897.175659
4791.497192	1.085398	0.595840	506.880859
4791.498107	0.603076	0.595840	1058.695557
4791.498993	0.093047	0.595840	1141.135132
4791.499959	0.090190	0.595840	1228.259033
4791.500884	0.090154	0.595840	1311.651367
4791.501774	0.090264	0.595840	1391.986084
4791.502726	0.090198	0.595840	1477.854370
4791.503637	0.090190	0.595840	1560.017822
4791.504554	0.090187	0.595840	1642.719116
4791.505452	0.090209	0.595840	1723.726562
4791.506378	0.090172	0.595840	1807.225952
4791.507311	0.090209	0.595840	1891.390747
4792.522212	1.097472	0.584649	505.934570
4792.523114	0.629403	0.584649	1073.656128
4792.524051	0.092834	0.584649	1160.642090
4792.524993	0.090209	0.584649	1245.618774
4792.525898	0.090253	0.584649	1327.297485
4792.526794	0.090234	0.584649	1408.147461
4792.527742	0.090231	0.584649	1493.686157
4792.528676	0.090253	0.584649	1577.982178
4792.529574	0.090256	0.584649	1659.032349
4792.530492	0.090212	0.584649	1741.847290
4792.531436	0.090242	0.584649	1827.035400
4792.532349	0.090227	0.584649	1909.412720
4793.532871	1.060869	0.596996	460.417175
4793.533810	0.646124	0.596996	1067.127930
4793.534755	0.092527	0.596996	1154.565796
4793.535671	0.090319	0.596996	1237.297607
4793.536560	0.090278	0.596996	1317.555054
4793.537503	0.090231	0.596996	1402.642578
4793.538438	0.090249	0.596996	1487.025391
4793.539363	0.090190	0.596996	1570.451538
4793.540253	0.090282	0.596996	1650.802490
4793.541189	0.090319	0.596996	1735.340698
4793.542104	0.090370	0.596996	1818.029175
4793.543000	0.090223	0.596996	1898.869385
4794.558423	1.080970	0.587783	479.950867
4794.559353	0.616183	0.587783	1053.000977
4794.560252	0.092996	0.587783	1136.604004
4794.561186	0.090355	0.587783	1220.995728
4794.562093	0.090322	0.587783	1302.917969
4794.562992	0.090231	0.587783	1384.035400
4794.563878	0.090245	0.587783	1463.992798
4794.564820	0.090381	0.587783	1549.131592
4794.565714	0.090165	0.587783	1629.738892
4794.566612	0.090216	0.587783	1710.752930
4794.567505	0.090234	0.587783	1791.332275
4794.568444	0.090344	0.587783	1876.165527
4795.568603	1.086489	0.597008	484.574249
4795.569513	0.641873	0.597008	1068.678345
4795.570405	0.093479	0.597008	1152.061646
4795.571337	0.090194	0.597008	1236.122559
4795.572244	0.090242	0.597008	1317.971802
4795.573150	0.090282	0.597008	1399.767334
4795.574076	0.090190	0.597008	1483.283691
4795.574968	0.090227	0.597008	1563.766235
4795.575917	0.090275	0.597008	1649.436890
4795.576807	0.090253	0.597008	1729.761719
4795.577697	0.090234	0.597008	1810.070312
4795.578626	0.090271	0.597008	1893.932129
4796.594131	1.075085	0.589322	474.112671
4796.595032	0.650665	0.589322	1060.362061
4796.595971	0.092618	0.589322	1147.330688
4796.596894	0.090183	0.589322	1230.569702
4796.597804	0.090223	0.589322	1312.672974
4796.598700	0.090143	0.589322	1393.440918
4796.599644	0.090179	0.589322	1478.570312
4796.600576	0.090179	0.589322	1562.617554
4796.601504	0.090256	0.589322	1646.375488
4796.602395	0.090179	0.589322	1726.725342
4796.603340	0.090245	0.589322	1812.007202
4796.604278	0.090275	0.589322	1896.684814
4797.604337	1.100845	0.593665	519.598694
4797.605249	0.593807	0.593665	1061.151123
4797.606140	0.092882	0.593665	1143.909058
4797.607100	0.090187	0.593665	1230.488403
4797.608036	0.090187	0.593665	1314.903198
4797.608937	0.090187	0.593665	1396.161499
4797.609851	0.090139	0.593665	1478.548706
4797.610795	0.090216	0.593665	1563.712646
4797.611706	0.090205	0.593665	1645.889526
4797.612596	0.090194	0.593665	1726.162231
4797.613532	0.090264	0.593665	1810.649048
4797.614471	0.090183	0.593665	1895.330933
4798.629835	1.069453	0.589326	467.351013
4798.630793	0.577639	0.589326	1020.729309
4798.631703	0.092450	0.589326	1104.858765
4798.632602	0.090271	0.589326	1186.012451
4798.633493	0.090201	0.589326	1266.381958
4798.634446	0.090293	0.589326	1352.431152
4798.635354	0.090289	0.589326	1434.413818
4798.636251	0.090132	0.589326	1515.262085
4798.637162	0.090322	0.589326	1597.545654
4798.638082	0.090304	0.589326	1680.625244
4798.638991	0.090260	0.589326	1762.671631
4798.639882	0.090245	0.589326	1843.080200
4799.639001	1.087310	0.600642	490.376617
4799.639902	0.645308	0.600642	1071.798706
4799.640841	0.092842	0.600642	1158.977173
4799.641750	0.090275	0.600642	1241.036865
4799.642655	0.090297	0.600642	1322.755371
4799.643545	0.090190	0.600642	1403.024902
4799.644498	0.090260	0.600642	1489.042725
4799.645410	0.090150	0.600642	1571.259644
4799.646306	0.090278	0.600642	1652.149048
4799.647231	0.090359	0.600642	1735.730957
4799.648132	0.090330	0.600642	1817.117920
4799.649032	0.090220	0.600642	1898.315674
4800.666575	1.063242	0.582393	467.826569
4800.667468	0.673217	0.582393	1069.008911
4800.668417	0.092725	0.582393	1157.004517
4800.669327	0.090216	0.582393	1239.101074
4800.670251	0.090256	0.582393	1322.497925
4800.671140	0.090297	0.582393	1402.771606
4800.672099	0.090220	0.582393	1489.292358
4800.673005	0.090190	0.582393	1571.004883
4800.673895	0.090198	0.582393	1651.280884
4800.674839	0.090249	0.582393	1736.475952
4800.675739	0.090245	0.582393	1817.696777
4800.676660	0.090271	0.582393	1900.836426
4801.674190	1.065256	0.601190	465.517029
4801.675166	0.578588	0.601190	1030.218506
4801.676083	0.092366	0.601190	1114.917847
4801.677003	0.090157	0.601190	1197.862671
4801.677893	0.090212	0.601190	1278.151733
4801.678831	0.090227	0.601190	1362.784668
4801.679756	0.090139	0.601190	1446.163452
4801.680655	0.090275	0.601190	1527.320312
4801.681574	0.090205	0.601190	1610.218750
4801.682496	0.090176	0.601190	1693.360840
4801.683420	0.090264	0.601190	1776.764526
4801.684311	0.090278	0.601190	1857.202515
4802.702840	1.085219	0.588690	512.223145
4802.703757	0.593793	0.588690	1056.731079
4802.704651	0.092703	0.588690	1139.607178
4802.705574	0.090172	0.588690	1222.836060
4802.706512	0.090289	0.588690	1307.527466
4802.707433	0.090212	0.588690	1390.613037
4802.708324	0.090220	0.588690	1470.998779
4802.709254	0.090168	0.588690	1554.855469
4802.710184	0.090275	0.588690	1638.810913
4802.711103	0.090238	0.588690	1721.739624
4802.712000	0.090223	0.588690	1802.670044
4802.712964	0.090220	0.588690	1889.641846
4803.708880	1.076799	0.604533	478.098877
4803.709868	0.568759	0.604533	1040.032349
4803.710795	0.091626	0.604533	1124.969604
4803.711687	0.090289	0.604533	1205.507690
4803.712611	0.090253	0.604533	1288.901123
4803.713527	0.090264	0.604533	1371.582642
4803.714458	0.090220	0.604533	1455.577148
4803.715358	0.090227	0.604533	1536.781494
4803.716283	0.090194	0.604533	1620.211060
4803.717223	0.090216	0.604533	1705.014160
4803.718140	0.090344	0.604533	1787.859863
4803.719030	0.090286	0.604533	1868.214111
4804.739024	1.063641	0.586482	464.811249
4804.739981	0.638474	0.586482	1075.830933
4804.740881	0.092552	0.586482	1159.128174
4804.741798	0.090205	0.586482	1241.846191
4804.742693	0.090260	0.586482	1322.628906
4804.743629	0.090278	0.586482	1407.129395
4804.744533	0.090300	0.586482	1488.760864
4804.745438	0.090231	0.586482	1570.419678
4804.746328	0.090231	0.586482	1650.724976
4804.747271	0.090223	0.586482	1735.805664
4804.748176	0.090231	0.586482	1817.464478
4804.749069	0.090212	0.586482	1898.024170
4805.743048	1.060060	0.612533	463.246124
4805.744024	0.563665	0.612533	1013.382690
4805.744935	0.092230	0.612533	1097.404419
4805.745831	0.090293	0.612533	1178.306885
4805.746721	0.090293	0.612533	1258.667603
4805.747688	0.090242	0.612533	1345.931274
4805.748595	0.090249	0.612533	1427.787109
4805.749486	0.090242	0.612533	1508.192505
4805.750416	0.090264	0.612533	1592.137695
4805.751322	0.090289	0.612533	1673.939819
4805.752223	0.090322	0.612533	1755.320190
4805.753108	0.090275	0.612533	1835.213257
4806.774802	1.148782	0.587920	584.729919
4806.775708	0.546193	0.587920	1079.580444
4806.776631	0.091970	0.587920	1164.468994
4806.777517	0.090264	0.587920	1244.442627
4806.778461	0.090308	0.587920	1329.692993
4806.779394	0.090220	0.587920	1413.868042
4806.780288	0.090249	0.587920	1494.550659
4806.781218	0.090253	0.587920	1578.485596
4806.782134	0.090231	0.587920	1661.136963
4806.783052	0.090304	0.587920	1744.036011
4806.783943	0.090249	0.587920	1824.447876
4806.784889	0.090264	0.587920	1909.837280
4807.778278	1.082102	0.617105	492.356445
4807.779184	0.634211	0.617105	1066.951904
4807.780111	0.092842	0.617105	1153.016235
4807.781005	0.090256	0.617105	1233.705444
4807.781951	0.090260	0.617105	1319.091431
4807.782876	0.090223	0.617105	1402.548096
4807.783772	0.090249	0.617105	1483.411255
4807.784683	0.090297	0.617105	1565.671509
4807.785611	0.090103	0.617105	1649.286621
4807.786550	0.090264	0.617105	1734.044189
4807.787445	0.090234	0.617105	1814.803955
4807.788372	0.090271	0.617105	1898.485107
4808.812528	1.085010	0.581753	506.699585
4808.813472	0.576130	0.581753	1050.566650
4808.814361	0.092509	0.581753	1132.806763
4808.815291	0.090212	0.581753	1216.704346
4808.816201	0.090238	0.581753	1298.820923
4808.817141	0.090234	0.581753	1383.641235
4808.818037	0.090286	0.581753	1464.537109
4808.818956	0.090157	0.581753	1547.391846
4808.819896	0.090234	0.581753	1632.212158
4808.820813	0.090249	0.581753	1714.970459
4808.821701	0.090245	0.581753	1795.108398
4808.822650	0.090212	0.581753	1880.719971
4809.812991	1.106517	0.619615	542.193481
4809.813919	0.548903	0.619615	1051.575073
4809.814825	0.092080	0.619615	1134.999634
4809.815714	0.090135	0.619615	1215.130127
4809.816665	0.090300	0.619615	1301.005737
4809.817566	0.090179	0.619615	1382.257446
4809.818458	0.090201	0.619615	1462.717163
4809.819363	0.090249	0.619615	1544.392578
4809.820290	0.090344	0.619615	1628.141724
4809.821196	0.090165	0.619615	1709.831055
4809.822099	0.090330	0.619615	1791.398682
4809.823030	0.090297	0.619615	1875.464844
4810.847196	1.088035	0.584927	487.439514
4810.848111	0.633204	0.584927	1066.821533
4810.849002	0.093340	0.584927	1149.987305
4810.849958	0.090304	0.584927	1236.317871
4810.850866	0.090231	0.584927	1318.247314
4810.851767	0.090194	0.584927	1399.512207
4810.852660	0.090205	0.584927	1480.065308
4810.853596	0.090308	0.584927	1564.593262
4810.854504	0.090234	0.584927	1646.526123
4810.855413	0.090201	0.584927	1728.519165
4810.856305	0.090227	0.584927	1809.001709
4810.857260	0.090275	0.584927	1895.213989
4811.848161	1.083274	0.620236	489.639801
4811.849070	0.640122	0.620236	1071.510742
4811.849951	0.093724	0.620236	1154.081909
4811.850907	0.090227	0.620236	1240.338989
4811.851823	0.090190	0.620236	1322.953369
4811.852746	0.090249	0.620236	1406.253174
4811.853635	0.090194	0.620236	1486.435669
4811.854590	0.090253	0.620236	1572.626953
4811.855513	0.090223	0.620236	1655.903076
4811.856405	0.090234	0.620236	1736.392090
4811.857336	0.090209	0.620236	1820.376465
4811.858254	0.090227	0.620236	1903.204956
4812.882929	1.112585	0.584633	521.802551
4812.883835	0.609891	0.584633	1074.364136
4812.884777	0.092501	0.584633	1161.500244
4812.885722	0.090179	0.584633	1246.719849
4812.886638	0.090267	0.584633	1329.404785
4812.887525	0.090220	0.584633	1409.429687
4812.888463	0.090253	0.584633	1494.086670
4812.889397	0.090227	0.584633	1578.358765
4812.890296	0.090172	0.584633	1659.423462
4812.891221	0.090201	0.584633	1742.859741
4812.892154	0.090143	0.584633	1826.963013
4812.893073	0.090194	0.584633	1909.851318
4813.883340	1.061462	0.627031	461.736145
4813.884284	0.639364	0.627031	1065.295776
4813.885217	0.092347	0.627031	1151.455933
4813.886144	0.090114	0.627031	1234.991211
4813.887037	0.090330	0.627031	1315.655518
4813.887962	0.090183	0.627031	1399.074951
4813.888893	0.090234	0.627031	1483.083130
4813.889814	0.090198	0.627031	1566.155273
4813.890713	0.090267	0.627031	1647.305664
4813.891630	0.090311	0.627031	1730.121094
4813.892570	0.090275	0.627031	1814.979248
4813.893488	0.090286	0.627031	1897.861450
4814.918651	1.130786	0.583836	547.300537
4814.919598	0.529691	0.583836	1048.918091
4814.920520	0.091699	0.583836	1133.464722
4814.921410	0.090154	0.583836	1213.701660
4814.922352	0.090172	0.583836	1298.643799
4814.923287	0.090249	0.583836	1383.026611
4814.924183	0.090297	0.583836	1463.932373
4814.925103	0.090198	0.583836	1546.914307
4814.926050	0.090194	0.583836	1632.328125
4814.926965	0.090249	0.583836	1714.906006
4814.927859	0.090128	0.583836	1795.480591
4814.928800	0.090253	0.583836	1880.408325
4815.919083	1.075649	0.628381	500.176971
4815.920004	0.608027	0.628381	1060.170166
4815.920894	0.092952	0.628381	1142.897095
4815.921823	0.090209	0.628381	1226.701050
4815.922733	0.090311	0.628381	1308.884277
4815.923637	0.090238	0.628381	1390.459473
4815.924527	0.090260	0.628381	1470.790894
4815.925456	0.090234	0.628381	1554.618652
4815.926372	0.090256	0.628381	1637.293457
4815.927275	0.090238	0.628381	1718.778442
4815.928173	0.090216	0.628381	1799.792480
4815.929106	0.090289	0.628381	1884.032349
4816.954324	1.077997	0.586112	480.786591
4816.955222	0.661282	0.586112	1074.617554
4816.956177	0.093259	0.586112	1163.680176
4816.957089	0.090267	0.586112	1246.004028
4816.957986	0.090297	0.586112	1327.000122
4816.958872	0.090359	0.586112	1407.058105
4816.959811	0.090293	0.586112	1491.843262
4816.960720	0.090220	0.586112	1573.853027
4816.961615	0.090231	0.586112	1654.609497
4816.962556	0.090326	0.586112	1739.606201
4816.963477	0.090256	0.586112	1822.732300
4816.964380	0.090286	0.586112	1904.260254
4817.954268	1.085870	0.630536	490.813416
4817.955162	0.654814	0.630536	1076.217529
4817.956103	0.092999	0.630536	1163.729858
4817.957032	0.090216	0.630536	1247.540527
4817.957934	0.090253	0.630536	1328.948486
4817.958823	0.090212	0.630536	1409.147339
4817.959771	0.090278	0.630536	1494.731201
4817.960679	0.090238	0.630536	1576.667358
4817.961571	0.090231	0.630536	1657.153198
4817.962501	0.090282	0.630536	1741.115479
4817.963410	0.090348	0.630536	1823.241699
4817.964305	0.090275	0.630536	1904.037476
4818.990081	1.117548	0.580653	552.068542
4818.991005	0.557113	0.580653	1066.840942
4818.991931	0.091926	0.580653	1151.964722
4818.992819	0.090242	0.580653	1232.099365
4818.993771	0.090245	0.580653	1318.012939
4818.994694	0.090271	0.580653	1401.333008
4818.995582	0.090289	0.580653	1481.509888
4818.996508	0.090220	0.580653	1565.053345
4818.997440	0.090249	0.580653	1649.165405
4818.998364	0.090278	0.580653	1732.582520
4818.999253	0.090304	0.580653	1812.862793
4819.000187	0.090220	0.580653	1897.128052
4819.990032	1.124535	0.630794	569.014709
4819.990942	0.556135	0.630794	1075.097778
4819.991866	0.092000	0.630794	1160.105347
4819.992754	0.090286	0.630794	1240.279053
4819.993688	0.090227	0.630794	1324.551147
4819.994604	0.090231	0.630794	1407.202515
4819.995498	0.090264	0.630794	1487.898193
4819.996411	0.090282	0.630794	1570.325684
4819.997338	0.090271	0.630794	1654.006836
4819.998263	0.090205	0.630794	1737.446533
4819.999157	0.090322	0.630794	1818.194580
4820.000108	0.090264	0.630794	1904.035278
4821.026263	1.082981	0.581555	480.843567
4821.027166	0.633688	0.581555	1053.063599
4821.028131	0.092318	0.581555	1142.150635
4821.029055	0.090198	0.581555	1225.493408
4821.029953	0.090267	0.581555	1306.553467
4821.030874	0.090205	0.581555	1389.632324
4821.031817	0.090176	0.581555	1474.668091
4821.032738	0.090231	0.581555	1557.770630
4821.033629	0.090253	0.581555	1638.185791
4821.034577	0.090234	0.581555	1723.728027
4821.035510	0.090212	0.581555	1807.896240
4821.036405	0.090205	0.581555	1888.629761
4822.026188	1.063788	0.631152	464.875275
4822.027085	0.661622	0.631152	1058.350464
4822.028059	0.092384	0.631152	1148.332520
4822.028979	0.090176	0.631152	1231.294189
4822.029866	0.090165	0.631152	1311.270386
4822.030796	0.090172	0.631152	1395.130493
4822.031726	0.090234	0.631152	1479.048462
4822.032653	0.090161	0.631152	1562.627808
4822.033544	0.090150	0.631152	1642.951538
4822.034464	0.090194	0.631152	1725.930054
4822.035400	0.090212	0.631152	1810.368896
4822.036311	0.090231	0.631152	1892.569092
4823.061502	1.083241	0.588222	527.538330
4823.062434	0.548024	0.588222	1038.296387
4823.063340	0.092238	0.588222	1121.863647
4823.064232	0.090311	0.588222	1202.421265
4823.065173	0.090355	0.588222	1287.445557
4823.066071	0.090267	0.588222	1368.505615
4823.066966	0.090293	0.588222	1449.317871
4823.067858	0.090220	0.588222	1529.793823
4823.068807	0.090300	0.588222	1615.488770
4823.069713	0.090234	0.588222	1697.241089
4823.070611	0.090256	0.588222	1778.291260
4823.071539	0.090282	0.588222	1862.072998
4824.061916	1.075093	0.632546	474.115936
4824.062837	0.637346	0.632546	1061.111816
4824.063736	0.093289	0.632546	1144.978271
4824.064659	0.090253	0.632546	1228.281494
4824.065569	0.090337	0.632546	1310.488037
4824.066477	0.090205	0.632546	1392.394287
4824.067369	0.090238	0.632546	1472.886597
4824.068308	0.090315	0.632546	1557.692383
4824.069202	0.090322	0.632546	1638.440430
4824.070106	0.090264	0.632546	1720.038818
4824.070996	0.090348	0.632546	1800.448486
4824.071939	0.090326	0.632546	1885.625854
4825.097674	1.060873	0.582804	462.540527
4825.098636	0.588995	0.582804	1029.154053
4825.099556	0.092124	0.582804	1113.908203
4825.100464	0.090198	0.582804	1195.807739
4825.101356	0.090249	0.582804	1276.309814
4825.102283	0.090319	0.582804	1360.035156
4825.103190	0.090216	0.582804	1441.861084
4825.104108	0.090227	0.582804	1524.689575
4825.105000	0.090201	0.582804	1605.149292
4825.105952	0.090179	0.582804	1691.000122
4825.106854	0.090238	0.582804	1772.394775
4825.107775	0.090253	0.582804	1855.517456
4826.097613	1.065205	0.629110	467.625031
4826.098509	0.660762	0.629110	1059.667480
4826.099482	0.092322	0.629110	1149.496582
4826.100381	0.090231	0.629110	1230.614014
4826.101272	0.090249	0.629110	1311.025879
4826.102219	0.090278	0.629110	1396.519409
4826.103127	0.090198	0.629110	1478.418945
4826.104048	0.090238	0.629110	1561.528198
4826.104935	0.090282	0.629110	1641.608276
4826.105860	0.090304	0.629110	1725.139404
4826.106765	0.090205	0.629110	1806.775024
4826.107693	0.090179	0.629110	1890.461548
4827.133412	1.079443	0.585213	488.987823
4827.134312	0.650321	0.585213	1074.276733
4827.135199	0.093776	0.585213	1157.455688
4827.136145	0.090216	0.585213	1242.800049
4827.137046	0.090231	0.585213	1324.097900
4827.137972	0.090216	0.585213	1407.637939
4827.138863	0.090212	0.585213	1488.017212
4827.139818	0.090139	0.585213	1574.100098
4827.140741	0.090282	0.585213	1657.430420
4827.141631	0.090212	0.585213	1737.719482
4827.142568	0.090275	0.585213	1822.306885
4827.143486	0.090212	0.585213	1905.121826
4828.133336	1.074379	0.627374	482.396057
4828.134246	0.643308	0.627374	1067.806396
4828.135138	0.093494	0.627374	1151.202759
4828.136056	0.090081	0.627374	1233.896729
4828.136999	0.090190	0.627374	1318.946289
4828.137918	0.090081	0.627374	1401.730347
4828.138809	0.090135	0.627374	1482.041016
4828.139753	0.090190	0.627374	1567.180786
4828.140687	0.090176	0.627374	1651.404907
4828.141588	0.090154	0.627374	1732.633545
4828.142498	0.090128	0.627374	1814.650146
4828.143432	0.090146	0.627374	1898.846924
4829.168096	1.075646	0.586869	482.964966
4829.169000	0.646824	0.586869	1067.693604
4829.169922	0.093519	0.586869	1153.918335
4829.170868	0.090198	0.586869	1239.245361
4829.171790	0.090234	0.586869	1322.441406
4829.172690	0.090286	0.586869	1403.698486
4829.173638	0.090249	0.586869	1489.254517
4829.174578	0.090194	0.586869	1574.036987
4829.175475	0.090205	0.586869	1654.950928
4829.176383	0.090143	0.586869	1736.800659
4829.177316	0.090249	0.586869	1821.003052
4829.178257	0.090143	0.586869	1905.827393
4830.169032	1.065271	0.622745	463.392883
4830.169958	0.656448	0.622745	1071.263428
4830.170899	0.092303	0.622745	1158.120972
4830.171841	0.090223	0.622745	1243.111450
4830.172743	0.090253	0.622745	1324.519409
4830.173656	0.090172	0.622745	1406.846558
4830.174597	0.090256	0.622745	1491.777832
4830.175511	0.090216	0.622745	1574.235352
4830.176403	0.090300	0.622745	1654.783203
4830.177358	0.090187	0.622745	1740.911621
4830.178292	0.090168	0.622745	1825.128906
4830.179183	0.090187	0.622745	1905.485352
4831.204357	1.142977	0.589536	566.916687
4831.205279	0.545383	0.589536	1069.760132
4831.206182	0.092018	0.589536	1152.852173
4831.207073	0.090190	0.589536	1233.211792
4831.208024	0.090359	0.589536	1319.143066
4831.208928	0.090245	0.589536	1400.724854
4831.209819	0.090172	0.589536	1481.068237
4831.210754	0.090260	0.589536	1565.461304
4831.211654	0.090245	0.589536	1646.682129
4831.212553	0.090198	0.589536	1727.769897
4831.213443	0.090150	0.589536	1808.003540
4831.214384	0.090282	0.589536	1892.958862
4832.205267	1.078788	0.622677	478.981781
4832.206174	0.650273	0.622677	1068.779785
4832.207058	0.094010	0.622677	1151.884644
4832.208010	0.090319	0.622677	1237.867920
4832.208923	0.090286	0.622677	1320.298706
4832.209810	0.090205	0.622677	1400.310669
4832.210739	0.090297	0.622677	1484.196289
4832.211642	0.090282	0.622677	1565.720947
4832.212543	0.090256	0.622677	1647.041870
4832.213439	0.090289	0.622677	1727.941040
4832.214389	0.090370	0.622677	1813.792480
4832.215290	0.090370	0.622677	1895.215698
4833.239529	1.078601	0.590954	505.863922
4833.240439	0.610173	0.590954	1061.121704
4833.241374	0.093149	0.590954	1148.216431
4833.242286	0.090183	0.590954	1230.463379
4833.243183	0.090216	0.590954	1311.387207
4833.244069	0.090275	0.590954	1391.370605
4833.245034	0.090275	0.590954	1478.485596
4833.245942	0.090201	0.590954	1560.388428
4833.246866	0.090253	0.590954	1643.781860
4833.247757	0.090286	0.590954	1724.226318
4833.248717	0.090238	0.590954	1810.854858
4833.249620	0.090216	0.590954	1892.319946
4834.242520	1.072445	0.618519	481.527832
4834.243425	0.653617	0.618519	1073.051270
4834.244312	0.093940	0.618519	1156.376465
4834.245262	0.090194	0.618519	1242.060791
4834.246170	0.090154	0.618519	1323.920410
4834.247061	0.090260	0.618519	1404.342041
4834.247995	0.090308	0.618519	1488.689331
4834.248898	0.090249	0.618519	1570.184204
4834.249818	0.090209	0.618519	1653.176270
4834.250702	0.090242	0.618519	1732.949951
4834.251641	0.090308	0.618519	1817.748779
4834.252540	0.090264	0.618519	1898.895874
4835.275264	1.126721	0.593588	547.586548
4835.276198	0.550342	0.593588	1061.605713
4835.277131	0.091582	0.593588	1147.051758
4835.278024	0.090223	0.593588	1227.621216
4835.278970	0.090201	0.593588	1312.951782
4835.279891	0.090242	0.593588	1396.064331
4835.280779	0.090242	0.593588	1476.198975
4835.281715	0.090227	0.593588	1560.651489
4835.282631	0.090223	0.593588	1643.296143
4835.283543	0.090253	0.593588	1725.606567
4835.284439	0.090253	0.593588	1806.473022
4835.285383	0.090275	0.593588	1891.692261
4836.277706	1.069072	0.618383	471.460846
4836.278670	0.568466	0.618383	1019.461670
4836.279603	0.091783	0.618383	1105.095581
4836.280533	0.090297	0.618383	1189.071411
4836.281431	0.090319	0.618383	1270.177490
4836.282396	0.090271	0.618383	1357.289062
4836.283315	0.090260	0.618383	1440.238037
4836.284211	0.090260	0.618383	1521.110962
4836.285158	0.090245	0.618383	1606.573364
4836.286074	0.090234	0.618383	1689.228027
4836.286988	0.090187	0.618383	1771.658691
4836.287880	0.090187	0.618383	1852.105225
4837.309920	1.096355	0.599324	498.841522
4837.310831	0.621636	0.599324	1065.151733
4837.311747	0.093285	0.599324	1150.600708
4837.312680	0.090179	0.599324	1234.738159
4837.313623	0.090297	0.599324	1319.887939
4837.314515	0.090278	0.599324	1400.416260
4837.315445	0.090201	0.599324	1484.303589
4837.316385	0.090176	0.599324	1569.068848
4837.317289	0.090300	0.599324	1650.700317
4837.318185	0.090289	0.599324	1731.599487
4837.319139	0.090168	0.599324	1817.620239
4837.320070	0.090278	0.599324	1901.669312
4838.314958	1.066121	0.619889	470.159210
4838.315931	0.579664	0.619889	1034.172607
4838.316855	0.091915	0.619889	1119.102295
4838.317770	0.090253	0.619889	1201.683472
4838.318662	0.090231	0.619889	1282.169312
4838.319598	0.090194	0.619889	1366.590942
4838.320523	0.090172	0.619889	1450.000122
4838.321425	0.090282	0.619889	1531.434448
4838.322342	0.090286	0.619889	1614.226440
4838.323283	0.090205	0.619889	1699.109375
4838.324198	0.090282	0.619889	1781.717407
4838.325087	0.090125	0.619889	1861.838135
4839.344598	1.074481	0.597818	478.144165
4839.345495	0.658799	0.597818	1069.086670
4839.346468	0.092692	0.597818	1159.275635
4839.347406	0.090282	0.597818	1243.960083
4839.348303	0.090260	0.597818	1324.923340
4839.349225	0.090205	0.597818	1408.092407
4839.350170	0.090304	0.597818	1493.429687
4839.351092	0.090256	0.597818	1576.645996
4839.351979	0.090326	0.597818	1656.765137
4839.352901	0.090165	0.597818	1739.897095
4839.353840	0.090253	0.597818	1824.644409
4839.354760	0.090271	0.597818	1907.693726
4840.351700	1.065571	0.612203	469.916962
4840.352596	0.672880	0.612203	1072.817139
4840.353559	0.092640	0.612203	1162.029785
4840.354464	0.090293	0.612203	1243.744873
4840.355370	0.090322	0.612203	1325.576904
4840.356261	0.090278	0.612203	1406.014893
4840.357190	0.090289	0.612203	1489.893677
4840.358101	0.090297	0.612203	1572.153931
4840.359003	0.090267	0.612203	1653.575073
4840.359930	0.090374	0.612203	1737.351318
4840.360837	0.090333	0.612203	1819.283569
4840.361742	0.090271	0.612203	1900.978760
4841.379278	1.072994	0.604465	472.117523
4841.380245	0.562797	0.604465	1016.341919
4841.381160	0.092205	0.604465	1100.709106
4841.382061	0.090286	0.604465	1182.056519
4841.382988	0.090216	0.604465	1265.686768
4841.383887	0.090370	0.604465	1346.929321
4841.384792	0.090234	0.604465	1428.591431
4841.385688	0.090253	0.604465	1509.457886
4841.386577	0.090245	0.604465	1589.686035
4841.387517	0.090209	0.604465	1674.482300
4841.388425	0.090194	0.604465	1756.378540
4841.389313	0.090245	0.604465	1836.516357
4842.388434	1.069761	0.612912	471.764526
4842.389330	0.668372	0.612912	1070.625488
4842.390283	0.093285	0.612912	1159.526001
4842.391188	0.090267	0.612912	1241.217896
4842.392090	0.090304	0.612912	1322.672119
4842.392978	0.090267	0.612912	1402.829468
4842.393927	0.090359	0.612912	1488.580078
4842.394836	0.090267	0.612912	1570.633057
4842.395727	0.090271	0.612912	1651.064453
4842.396653	0.090341	0.612912	1734.719849
4842.397566	0.090337	0.612912	1817.197510
4842.398475	0.090267	0.612912	1899.250488
4843.414495	1.089672	0.605069	494.710907
4843.415397	0.630868	0.605069	1063.753784
4843.416329	0.092802	0.605069	1150.244751
4843.417219	0.090256	0.605069	1230.572876
4843.418157	0.090234	0.605069	1315.212769
4843.419076	0.090264	0.605069	1398.165039
4843.419971	0.090286	0.605069	1478.970703
4843.420905	0.090245	0.605069	1563.259888
4843.421821	0.090201	0.605069	1645.884399
4843.422740	0.090209	0.605069	1728.786255
4843.423632	0.090194	0.605069	1809.239380
4843.424588	0.090183	0.605069	1895.454468
4844.423623	1.061115	0.613871	463.707062
4844.424558	0.619153	0.613871	1042.614990
4844.425505	0.092285	0.613871	1130.009033
4844.426423	0.090245	0.613871	1212.854248
4844.427319	0.090183	0.613871	1293.658325
4844.428275	0.090201	0.613871	1379.890869
4844.429211	0.090227	0.613871	1464.343384
4844.430112	0.090267	0.613871	1545.674194
4844.431031	0.090304	0.613871	1628.663574
4844.431971	0.090223	0.613871	1713.473511
4844.432887	0.090267	0.613871	1796.158447
4844.433778	0.090304	0.613871	1876.619263
4845.449210	1.114519	0.604034	528.282043
4845.450143	0.565734	0.604034	1056.111572
4845.451031	0.092373	0.604034	1138.138794
4845.451949	0.090165	0.604034	1220.910034
4845.452888	0.090216	0.604034	1305.622925
4845.453804	0.090264	0.604034	1388.304443
4845.454700	0.090227	0.604034	1469.147827
4845.455648	0.090183	0.604034	1554.641357
4845.456576	0.090216	0.604034	1638.361816
4845.457471	0.090223	0.604034	1719.111694
4845.458390	0.090253	0.604034	1802.053955
4845.459326	0.090209	0.604034	1886.489380
4846.459395	1.120122	0.615873	556.700684
4846.460315	0.551873	0.615873	1064.423462
4846.461211	0.092234	0.615873	1147.065063
4846.462104	0.090161	0.615873	1227.578979
4846.463039	0.090304	0.615873	1312.013184
4846.463942	0.090275	0.615873	1393.531250
4846.464837	0.090256	0.615873	1474.310669
4846.465748	0.090293	0.615873	1556.567627
4846.466671	0.090337	0.615873	1639.948608
4846.467588	0.090179	0.615873	1722.643188
4846.468482	0.090267	0.615873	1803.342163
4846.469417	0.090282	0.615873	1887.755859
4847.484371	1.070138	0.605597	476.211334
4847.485271	0.656803	0.605597	1067.333984
4847.486209	0.093878	0.605597	1155.391724
4847.487116	0.090271	0.605597	1237.267578
4847.488011	0.090249	0.605597	1318.040405
4847.488899	0.090326	0.605597	1398.249878
4847.489846	0.090322	0.605597	1483.785034
4847.490758	0.090216	0.605597	1566.062134
4847.491652	0.090249	0.605597	1646.744751
4847.492540	0.090242	0.605597	1726.879395
4847.493486	0.090297	0.605597	1812.300049
4847.494392	0.090330	0.605597	1894.138672
4848.495056	1.071020	0.616739	472.320038
4848.496005	0.635907	0.616739	1075.795776
4848.496910	0.092417	0.616739	1159.433105
4848.497816	0.090187	0.616739	1241.142334
4848.498704	0.090168	0.616739	1321.211914
4848.499631	0.090282	0.616739	1404.903320
4848.500547	0.090190	0.616739	1487.517700
4848.501455	0.090223	0.616739	1569.440552
4848.502342	0.090242	0.616739	1649.484985
4848.503285	0.090289	0.616739	1734.627808
4848.504182	0.090190	0.616739	1815.528564
4848.505072	0.090297	0.616739	1895.892578
4849.520116	1.122008	0.603562	532.953796
4849.521041	0.564144	0.603562	1054.787354
4849.521966	0.091886	0.603562	1139.781860
4849.522857	0.090187	0.603562	1220.138306
4849.523818	0.090249	0.603562	1306.867676
4849.524719	0.090271	0.603562	1388.201904
4849.525610	0.090242	0.603562	1468.607300
4849.526557	0.090253	0.603562	1554.076538
4849.527467	0.090201	0.603562	1636.159790
4849.528378	0.090260	0.603562	1718.386719
4849.529275	0.090231	0.603562	1799.323730
4849.530210	0.090289	0.603562	1883.744263
4850.530270	1.090624	0.618769	495.143188
4850.531184	0.625045	0.618769	1066.434448
4850.532128	0.092212	0.618769	1153.482544
4850.533021	0.090161	0.618769	1233.996460
4850.533982	0.090242	0.618769	1320.718750
4850.534908	0.090172	0.618769	1404.218140
4850.535800	0.090231	0.618769	1484.703979
4850.536735	0.090227	0.618769	1569.066284
4850.537649	0.090201	0.618769	1651.510376
4850.538569	0.090260	0.618769	1734.549561
4850.539464	0.090256	0.618769	1815.328979
4850.540398	0.090187	0.618769	1899.563477
4851.555780	1.060902	0.604803	459.370605
4851.556740	0.616245	0.604803	1050.965820
4851.557645	0.092325	0.604803	1134.520386
4851.558563	0.090172	0.604803	1217.298340
4851.559455	0.090179	0.604803	1297.738403
4851.560413	0.090249	0.604803	1384.197021
4851.561315	0.090231	0.604803	1465.585083
4851.562234	0.090253	0.604803	1548.527344
4851.563120	0.090256	0.604803	1628.494507
4851.564052	0.090183	0.604803	1712.545166
4851.564980	0.090253	0.604803	1796.299683
4851.565897	0.090308	0.604803	1879.111816
4852.565461	1.071669	0.622415	476.892548
4852.566359	0.661996	0.622415	1071.364746
4852.567291	0.093267	0.622415	1158.289185
4852.568229	0.090198	0.622415	1242.894653
4852.569150	0.090293	0.622415	1326.054443
4852.570040	0.090286	0.622415	1406.408691
4852.570998	0.090256	0.622415	1492.874268
4852.571944	0.090198	0.622415	1578.201294
4852.572840	0.090190	0.622415	1659.011963
4852.573766	0.090253	0.622415	1742.585937
4852.574702	0.090209	0.622415	1827.021362
4852.575621	0.090249	0.622415	1909.960205
4853.591535	1.090975	0.607627	508.394531
4853.592452	0.601461	0.607627	1059.934570
4853.593346	0.092893	0.607627	1142.980957
4853.594271	0.090179	0.607627	1226.396973
4853.595215	0.090275	0.607627	1311.616211
4853.596133	0.090245	0.607627	1394.461426
4853.597024	0.090216	0.607627	1474.843994
4853.597981	0.090125	0.607627	1561.093140
4853.598920	0.090132	0.607627	1645.726929
4853.599818	0.090293	0.607627	1726.810059
4853.600736	0.090234	0.607627	1809.645264
4853.601670	0.090150	0.607627	1893.845459
4854.600696	1.097985	0.617637	532.522583
4854.601634	0.547244	0.617637	1045.837158
4854.602557	0.091736	0.617637	1130.509277
4854.603448	0.090271	0.617637	1210.940674
4854.604364	0.090194	0.617637	1293.558472
4854.605299	0.090168	0.617637	1377.865967
4854.606215	0.090238	0.617637	1460.524048
4854.607107	0.090264	0.617637	1541.039307
4854.608038	0.090190	0.617637	1625.006592
4854.608961	0.090194	0.617637	1708.255737
4854.609871	0.090227	0.617637	1790.362305
4854.610762	0.090260	0.617637	1870.783936
4855.627724	1.069134	0.606040	470.419159
4855.628705	0.545500	0.606040	1005.555054
4855.629607	0.092098	0.606040	1088.627808
4855.630505	0.090227	0.606040	1169.651733
4855.631400	0.090190	0.606040	1250.372192
4855.632337	0.090223	0.606040	1334.911499
4855.633248	0.090187	0.606040	1417.071655
4855.634146	0.090172	0.606040	1498.046265
4855.635087	0.090275	0.606040	1582.994751
4855.635988	0.090256	0.606040	1664.315674
4855.636897	0.090168	0.606040	1746.278809
4855.637783	0.090220	0.606040	1826.213501
4856.635348	1.076433	0.619587	474.706970
4856.636276	0.642638	0.619587	1071.074951
4856.637176	0.093322	0.619587	1155.064331
4856.638065	0.090132	0.619587	1235.191528
4856.639017	0.090275	0.619587	1321.133057
4856.639931	0.090172	0.619587	1403.550415
4856.640838	0.090117	0.619587	1485.286743
4856.641734	0.090190	0.619587	1566.097412
4856.642655	0.090278	0.619587	1649.243774
4856.643562	0.090139	0.619587	1731.000000
4856.644451	0.090172	0.619587	1811.162964
4856.645387	0.090297	0.619587	1895.680664
4857.662972	1.129980	0.604158	541.260620
4857.663889	0.577643	0.604158	1070.958984
4857.664782	0.092542	0.604158	1153.598511
4857.665733	0.090282	0.604158	1239.456665
4857.666636	0.090187	0.604158	1320.895264
4857.667558	0.090220	0.604158	1404.077881
4857.668447	0.090238	0.604158	1484.299561
4857.669393	0.090234	0.604158	1569.661255
4857.670296	0.090198	0.604158	1651.109863
4857.671221	0.090231	0.604158	1734.573242
4857.672111	0.090282	0.604158	1814.924194
4857.673045	0.090154	0.604158	1899.127808
4858.670034	1.072083	0.622705	478.148804
4858.670935	0.655243	0.622705	1068.522705
4858.671824	0.093889	0.622705	1151.990234
4858.672792	0.090165	0.622705	1239.269775
4858.673693	0.090168	0.622705	1320.511597
4858.674617	0.090212	0.622705	1403.867920
4858.675505	0.090179	0.622705	1483.947266
4858.676454	0.090223	0.622705	1569.569214
4858.677373	0.090201	0.622705	1652.464355
4858.678265	0.090242	0.622705	1732.959961
4858.679177	0.090289	0.622705	1815.303833
4858.680129	0.090304	0.622705	1901.273193
4859.700727	1.131405	0.599127	544.205872
4859.701664	0.545409	0.599127	1055.254028
4859.702563	0.092139	0.599127	1138.086670
4859.703481	0.090165	0.599127	1220.857910
4859.704415	0.090172	0.599127	1305.078613
4859.705334	0.090260	0.599127	1388.027588
4859.706221	0.090223	0.599127	1468.055786
4859.707164	0.090150	0.599127	1553.067383
4859.708095	0.090121	0.599127	1636.969849
4859.708987	0.090242	0.599127	1717.465454
4859.709923	0.090165	0.599127	1801.859741
4859.710854	0.090238	0.599127	1885.871338
4860.704256	1.109224	0.629565	534.645752
4860.705174	0.570868	0.629565	1058.702515
4860.706064	0.092450	0.629565	1140.983032
4860.706993	0.090216	0.629565	1224.793701
4860.707940	0.090179	0.629565	1310.193604
4860.708853	0.090227	0.629565	1392.570923
4860.709742	0.090205	0.629565	1472.763184
4860.710693	0.090271	0.629565	1558.610840
4860.711625	0.090187	0.629565	1642.664917
4860.712544	0.090209	0.629565	1725.566772
4860.713432	0.090212	0.629565	1805.675415
4860.714379	0.090201	0.629565	1891.096191
4861.736397	1.066988	0.602116	467.340942
4861.737297	0.657147	0.602116	1058.773437
4861.738268	0.092278	0.602116	1148.375244
4861.739169	0.090231	0.602116	1229.673096
4861.740073	0.090176	0.602116	1311.192017
4861.741013	0.090282	0.602116	1396.057129
4861.741912	0.090238	0.602116	1477.181152
4861.742808	0.090245	0.602116	1558.041016
4861.743695	0.090139	0.602116	1637.994507
4861.744628	0.090289	0.602116	1722.234375
4861.745528	0.090212	0.602116	1803.425537
4861.746431	0.090209	0.602116	1884.884033
4862.739915	1.067926	0.625907	470.955383
4862.740871	0.633003	0.625907	1076.106201
4862.741776	0.092377	0.625907	1159.707153
4862.742676	0.090176	0.625907	1240.865356
4862.743565	0.090227	0.625907	1321.077148
4862.744509	0.090267	0.625907	1406.289551
4862.745415	0.090337	0.625907	1488.134766
4862.746326	0.090245	0.625907	1570.348267
4862.747214	0.090227	0.625907	1650.469849
4862.748153	0.090289	0.625907	1735.251465
4862.749057	0.090282	0.625907	1816.866333
4862.749950	0.090278	0.625907	1897.484863
4863.772642	1.076375	0.599429	482.215790
4863.773548	0.643352	0.599429	1065.092773
4863.774433	0.093787	0.599429	1148.093994
4863.775383	0.090176	0.599429	1233.760986
4863.776287	0.090220	0.599429	1315.319580
4863.777198	0.090231	0.599429	1397.519775
4863.778098	0.090293	0.599429	1478.783447
4863.779052	0.090161	0.599429	1564.797119
4863.779954	0.090227	0.599429	1646.181885
4863.780846	0.090161	0.599429	1726.605591
4863.781779	0.090311	0.599429	1810.865967
4863.782698	0.090190	0.599429	1893.750977
4864.774604	1.066483	0.627454	467.119629
4864.775575	0.590321	0.627454	1040.321411
4864.776471	0.092201	0.627454	1122.933472
4864.777384	0.090216	0.627454	1205.300781
4864.778278	0.090227	0.627454	1285.963745
4864.779227	0.090201	0.627454	1371.564941
4864.780149	0.090256	0.627454	1454.781250
4864.781045	0.090238	0.627454	1535.634521
4864.781966	0.090176	0.627454	1618.686401
4864.782889	0.090220	0.627454	1701.959229
4864.783813	0.090183	0.627454	1785.288452
4864.784706	0.090220	0.627454	1865.854614
4865.807826	1.072771	0.601709	473.091980
4865.808731	0.652679	0.601709	1063.766846
4865.809688	0.092765	0.601709	1152.542847
4865.810618	0.090168	0.601709	1236.399536
4865.811538	0.090220	0.601709	1319.401733
4865.812430	0.090176	0.601709	1399.838501
4865.813378	0.090183	0.601709	1485.332031
4865.814315	0.090146	0.601709	1569.799316
4865.815210	0.090311	0.601709	1650.627930
4865.816125	0.090179	0.601709	1733.142090
4865.817053	0.090135	0.601709	1816.787842
4865.817985	0.090227	0.601709	1900.879395
4866.809846	1.109564	0.635511	534.809937
4866.810787	0.538033	0.635511	1041.099487
4866.811712	0.091575	0.635511	1125.806152
4866.812599	0.090198	0.635511	1205.811523
4866.813548	0.090172	0.635511	1291.384888
4866.814486	0.090092	0.635511	1375.890747
4866.815404	0.090216	0.635511	1458.709106
4866.816291	0.090143	0.635511	1538.665771
4866.817242	0.090179	0.635511	1624.426392
4866.818168	0.090194	0.635511	1707.946167
4866.819068	0.090216	0.635511	1789.140625
4866.819987	0.090179	0.635511	1872.015503
4867.845070	1.077206	0.601149	472.893341
4867.845984	0.649204	0.601149	1066.265869
4867.846910	0.093885	0.601149	1153.203857
4867.847848	0.090315	0.601149	1237.919312
4867.848764	0.090245	0.601149	1320.584106
4867.849660	0.090260	0.601149	1401.457031
4867.850595	0.090264	0.601149	1485.853516
4867.851495	0.090304	0.601149	1567.127075
4867.852394	0.090238	0.601149	1648.251099
4867.853280	0.090267	0.601149	1728.227905
4867.854227	0.090322	0.601149	1813.763062
4867.855132	0.090209	0.601149	1895.401978
4868.845012	1.077092	0.639152	480.383148
4868.845913	0.655789	0.639152	1071.248657
4868.846841	0.093827	0.639152	1158.320068
4868.847759	0.090179	0.639152	1241.104736
4868.848671	0.090157	0.639152	1323.328369
4868.849571	0.090161	0.639152	1404.473389
4868.850500	0.090278	0.639152	1488.341919
4868.851407	0.090319	0.639152	1570.260864
4868.852308	0.090190	0.639152	1651.522461
4868.853195	0.090194	0.639152	1731.524658
4868.854139	0.090278	0.639152	1816.747437
4868.855045	0.090231	0.639152	1898.496460
4869.879757	1.069299	0.604638	468.353119
4869.880703	0.622324	0.604638	1057.071899
4869.881611	0.092589	0.604638	1141.142822
4869.882505	0.090187	0.604638	1221.769775
4869.883395	0.090172	0.604638	1302.022949
4869.884343	0.090293	0.604638	1387.620728
4869.885242	0.090220	0.604638	1468.728271
4869.886147	0.090205	0.604638	1550.363892
4869.887039	0.090161	0.604638	1630.787598
4869.887988	0.090289	0.604638	1716.472168
4869.888896	0.090198	0.604638	1798.371704
4869.889788	0.090267	0.604638	1878.890137
4870.880798	1.158827	0.638045	606.066467
4870.881729	0.507034	0.638045	1078.114868
4870.882628	0.091725	0.638045	1160.575562
4870.883515	0.090161	0.638045	1240.548462
4870.884456	0.090238	0.638045	1325.462402
4870.885359	0.090245	0.638045	1406.953979
4870.886268	0.090249	0.638045	1488.990356
4870.887168	0.090198	0.638045	1570.168335
4870.888133	0.090198	0.638045	1657.209106
4870.889036	0.090220	0.638045	1738.677490
4870.889925	0.090245	0.638045	1818.905640
4870.890852	0.090297	0.638045	1902.610596
4871.915004	1.111879	0.603454	527.030518
4871.915910	0.598143	0.603454	1068.948242
4871.916827	0.092505	0.603454	1153.775269
4871.917723	0.090231	0.603454	1234.621948
4871.918674	0.090201	0.603454	1320.403442
4871.919599	0.090172	0.603454	1403.812622
4871.920494	0.090245	0.603454	1484.582275
4871.921437	0.090223	0.603454	1569.662964
4871.922353	0.090223	0.603454	1652.307617
4871.923274	0.090293	0.603454	1735.467407
4871.924165	0.090242	0.603454	1815.872803
4871.925111	0.090183	0.603454	1901.186035
4872.915952	1.086863	0.638798	517.346619
4872.916859	0.596503	0.638798	1058.374512
4872.917792	0.092864	0.638798	1145.016357
4872.918727	0.090187	0.638798	1229.340942
4872.919650	0.090157	0.638798	1312.556274
4872.920542	0.090161	0.638798	1392.979980
4872.921493	0.090220	0.638798	1478.778931
4872.922409	0.090172	0.638798	1561.376587
4872.923327	0.090256	0.638798	1644.231934
4872.924215	0.090282	0.638798	1724.402344
4872.925171	0.090198	0.638798	1810.631348
4872.926082	0.090278	0.638798	1892.874878
4873.951237	1.113842	0.602849	550.237732
4873.952162	0.547214	0.602849	1056.411011
4873.953091	0.091710	0.602849	1141.609741
4873.953983	0.090216	0.602849	1222.082520
4873.954930	0.090220	0.602849	1307.520630
4873.955845	0.090282	0.602849	1390.128662
4873.956764	0.090201	0.602849	1473.023804
4873.957655	0.090227	0.602849	1553.416138
4873.958584	0.090154	0.602849	1637.169067
4873.959507	0.090212	0.602849	1720.435059
4873.960424	0.090242	0.602849	1803.186646
4873.961320	0.090198	0.602849	1884.003784
4874.951665	1.090767	0.640047	512.660339
4874.952579	0.599026	0.640047	1060.169922
4874.953467	0.092926	0.640047	1142.688232
4874.954414	0.090183	0.640047	1228.091675
4874.955330	0.090231	0.640047	1310.743042
4874.956246	0.090223	0.640047	1393.387695
4874.957135	0.090253	0.640047	1473.622314
4874.958053	0.090322	0.640047	1556.538208
4874.958988	0.090223	0.640047	1640.897095
4874.959905	0.090245	0.640047	1723.652100
4874.960793	0.090249	0.640047	1803.793213
4874.961725	0.090256	0.640047	1887.912109
4875.987400	1.060536	0.596654	460.272583
4875.988339	0.656869	0.596654	1077.072510
4875.989282	0.092607	0.596654	1164.401367
4875.990207	0.090179	0.596654	1247.817383
4875.991106	0.090187	0.596654	1328.895264
4875.992027	0.090187	0.596654	1411.957275
4875.992973	0.090238	0.596654	1497.322510
4875.993887	0.090289	0.596654	1579.846924
4875.994775	0.090216	0.596654	1659.958740
4875.995732	0.090209	0.596654	1746.288452
4875.996670	0.090253	0.596654	1830.945435
4875.997571	0.090256	0.596654	1912.266357
