time (s)	coil I (A)	last det (V)	int current (uC)
5776.024531	1.071863	0.391004	474.835175
5776.025430	1.542755	0.391004	1861.772095
5776.026401	1.530520	0.391004	3347.907227
5776.027318	0.837118	0.391004	4115.544434
5776.028221	0.099283	0.391004	4205.197266
5776.029107	0.090168	0.391004	4285.086426
5776.030046	0.090355	0.391004	4369.930176
5776.030955	0.090267	0.391004	4451.983398
5776.031856	0.090223	0.391004	4533.274902
5776.032779	0.090352	0.391004	4616.669434
5776.033696	0.090344	0.391004	4699.515137
5776.034602	0.090220	0.391004	4781.254395
5776.035503	0.090249	0.391004	4862.568848
5776.036458	0.090289	0.391004	4948.794922
5777.026034	1.082607	0.457290	503.412445
5777.026962	1.545930	0.457290	1938.035645
5777.027866	1.531344	0.457290	3322.370605
5777.028806	0.836125	0.457290	4108.328613
5777.029739	0.097306	0.457290	4199.115234
5777.030659	0.090161	0.457290	4282.063477
5777.031551	0.090348	0.457290	4362.653809
5777.032503	0.090187	0.457290	4448.511719
5777.033430	0.090264	0.457290	4532.186035
5777.034338	0.090245	0.457290	4614.128906
5777.035241	0.090114	0.457290	4695.501465
5777.036178	0.090289	0.457290	4780.102539
5777.037119	0.090249	0.457290	4865.026855
5777.038016	0.090293	0.457290	4946.019531
5778.055113	1.067952	0.409421	466.694885
5778.056067	1.543070	0.409421	1938.783691
5778.056979	1.531615	0.409421	3335.616455
5778.057882	0.870330	0.409421	4121.523926
5778.058771	0.101715	0.409421	4211.948730
5778.059716	0.090282	0.409421	4297.265137
5778.060621	0.090187	0.409421	4378.884277
5778.061523	0.090238	0.409421	4460.278809
5778.062415	0.090190	0.409421	4540.728516
5778.063360	0.090304	0.409421	4626.065918
5778.064270	0.090223	0.409421	4708.169434
5778.065168	0.090264	0.409421	4789.226074
5778.066100	0.090322	0.409421	4873.406250
5778.067000	0.090282	0.409421	4954.660156
5779.077594	1.084318	0.460577	490.111542
5779.078496	1.543524	0.460577	1882.370361
5779.079455	1.530890	0.460577	3350.493652
5779.080370	0.843710	0.460577	4122.488281
5779.081271	0.099551	0.460577	4212.183594
5779.082157	0.090135	0.460577	4292.043457
5779.083088	0.090264	0.460577	4376.079102
5779.083999	0.090238	0.460577	4458.286133
5779.084899	0.090168	0.460577	4539.437500
5779.085827	0.090278	0.460577	4623.215820
5779.086741	0.090238	0.460577	4705.693359
5779.087646	0.090249	0.460577	4787.368652
5779.088545	0.090212	0.460577	4868.469727
5779.089489	0.090264	0.460577	4953.678711
5780.085755	1.081491	0.419101	525.604370
5780.086666	1.545106	0.419101	1933.196045
5780.087590	1.530406	0.419101	3347.291504
5780.088491	0.847808	0.419101	4111.166016
5780.089433	0.097786	0.419101	4203.280273
5780.090336	0.090227	0.419101	4284.755371
5780.091238	0.090190	0.419101	4366.106934
5780.092125	0.090165	0.419101	4446.083008
5780.093073	0.090374	0.419101	4531.757324
5780.093977	0.090194	0.419101	4613.292969
5780.094874	0.090304	0.419101	4694.295410
5780.095809	0.090278	0.419101	4778.705566
5780.096716	0.090278	0.419101	4860.587891
5780.097610	0.090198	0.419101	4941.224609
5781.116412	1.127963	0.467433	552.701660
5781.117333	1.545714	0.467433	1976.304443
5781.118250	1.530007	0.467433	3379.321289
5781.119161	0.828208	0.467433	4133.818848
5781.120106	0.096907	0.467433	4225.395508
5781.121002	0.090172	0.467433	4306.189941
5781.121888	0.090256	0.467433	4386.157227
5781.122826	0.090308	0.467433	4470.865723
5781.123733	0.090176	0.467433	4552.655273
5781.124642	0.090190	0.467433	4634.638184
5781.125533	0.090209	0.467433	4715.014160
5781.126488	0.090286	0.467433	4801.236816
5781.127394	0.090227	0.467433	4882.982422
5781.128291	0.090220	0.467433	4963.909668
5782.115277	1.069054	0.438864	471.452820
5782.116254	1.543162	0.438864	1979.121826
5782.117160	1.529583	0.438864	3364.923584
5782.118077	0.817152	0.438864	4114.251953
5782.118966	0.098804	0.438864	4202.088379
5782.119911	0.090231	0.438864	4287.356445
5782.120817	0.090209	0.438864	4369.085449
5782.121732	0.090157	0.438864	4451.579590
5782.122624	0.090216	0.438864	4532.052246
5782.123570	0.090289	0.438864	4617.465820
5782.124467	0.090179	0.438864	4698.356934
5782.125386	0.090179	0.438864	4781.231934
5782.126276	0.090209	0.438864	4861.517578
5782.127221	0.090198	0.438864	4946.754395
5783.147476	1.069028	0.481424	476.786591
5783.148373	1.542733	0.481424	1860.618286
5783.149266	1.532900	0.481424	3229.498291
5783.150243	0.867601	0.481424	4077.144775
5783.151143	0.100353	0.481424	4167.462402
5783.152033	0.090223	0.481424	4247.761230
5783.152953	0.090348	0.481424	4330.881348
5783.153881	0.090187	0.481424	4414.574707
5783.154777	0.090190	0.481424	4495.385254
5783.155668	0.090249	0.481424	4575.797363
5783.156605	0.090245	0.481424	4660.357422
5783.157513	0.090205	0.481424	4742.263672
5783.158431	0.090176	0.481424	4825.044922
5783.159329	0.090165	0.481424	4906.012695
5784.166875	1.082633	0.474652	483.937012
5784.167777	1.542773	0.474652	1875.518677
5784.168705	1.531168	0.474652	3296.442871
5784.169611	0.891954	0.474652	4104.553711
5784.170578	0.097405	0.474652	4198.744141
5784.171494	0.090179	0.474652	4281.348633
5784.172386	0.090242	0.474652	4361.844238
5784.173334	0.090249	0.474652	4447.400391
5784.174234	0.090179	0.474652	4528.562012
5784.175158	0.090128	0.474652	4611.840332
5784.176046	0.090135	0.474652	4691.880859
5784.176979	0.090212	0.474652	4776.048828
5784.177887	0.090223	0.474652	4857.971680
5784.178802	0.090198	0.474652	4940.502441
5785.179642	1.100497	0.448114	537.042419
5785.180567	1.544572	0.448114	1965.770996
5785.181492	1.529436	0.448114	3380.499268
5785.182391	0.821799	0.448114	4119.296875
5785.183331	0.096163	0.448114	4209.690430
5785.184248	0.090187	0.448114	4292.391602
5785.185139	0.090271	0.448114	4372.823242
5785.186045	0.090179	0.448114	4454.525879
5785.186981	0.090198	0.448114	4538.951172
5785.187883	0.090249	0.448114	4620.355957
5785.188773	0.090249	0.448114	4700.677734
5785.189714	0.090212	0.448114	4785.567383
5785.190624	0.090168	0.448114	4867.620605
5785.191544	0.090183	0.448114	4950.588867
5786.212298	1.064575	0.442115	462.025635
5786.213243	1.542294	0.442115	1919.493164
5786.214160	1.530938	0.442115	3323.362793
5786.215092	0.834302	0.442115	4100.932129
5786.215983	0.099393	0.442115	4189.491699
5786.216943	0.090161	0.442115	4276.046387
5786.217840	0.090157	0.442115	4356.917480
5786.218746	0.090253	0.442115	4438.686523
5786.219641	0.090249	0.442115	4519.459473
5786.220598	0.090231	0.442115	4605.810059
5786.221519	0.090209	0.442115	4688.892090
5786.222408	0.090157	0.442115	4769.041992
5786.223348	0.090245	0.442115	4853.872559
5786.224260	0.090238	0.442115	4936.169434
5787.206659	1.122378	0.434163	554.454651
5787.207576	1.545597	0.434163	1971.766846
5787.208503	1.529198	0.434163	3389.333496
5787.209405	0.808773	0.434163	4118.846680
5787.210371	0.095460	0.434163	4211.061035
5787.211294	0.090205	0.434163	4294.320312
5787.212185	0.090297	0.434163	4374.774414
5787.213133	0.090264	0.434163	4460.344238
5787.214029	0.090234	0.434163	4541.194336
5787.214957	0.090179	0.434163	4624.880859
5787.215853	0.090198	0.434163	4705.698242
5787.216799	0.090260	0.434163	4791.083984
5787.217709	0.090216	0.434163	4873.180664
5787.218629	0.090223	0.434163	4956.186035
5788.243447	1.118265	0.451747	536.767395
5788.244396	1.545582	0.451747	2003.524902
5788.245319	1.528601	0.451747	3414.423828
5788.246227	0.773654	0.451747	4116.901367
5788.247191	0.094658	0.451747	4208.151855
5788.248123	0.090179	0.451747	4292.199219
5788.249024	0.090198	0.451747	4373.467285
5788.249955	0.090117	0.451747	4457.366211
5788.250884	0.090198	0.451747	4541.160156
5788.251799	0.090205	0.451747	4623.697754
5788.252692	0.090249	0.451747	4704.290039
5788.253617	0.090231	0.451747	4787.753418
5788.254548	0.090168	0.451747	4871.700195
5788.255468	0.090190	0.451747	4954.675293
5789.250517	1.074192	0.490866	474.792847
5789.251426	1.542894	0.490866	1877.283691
5789.252321	1.532351	0.490866	3248.737793
5789.253258	0.907438	0.490866	4099.006836
5789.254209	0.099705	0.490866	4193.825684
5789.255126	0.090125	0.490866	4276.469727
5789.256013	0.090271	0.490866	4356.540039
5789.256969	0.090249	0.490866	4442.817871
5789.257903	0.090231	0.490866	4527.093262
5789.258803	0.090190	0.490866	4608.264648
5789.259713	0.090190	0.490866	4690.337891
5789.260643	0.090220	0.490866	4774.242187
5789.261584	0.090242	0.490866	4859.159668
5789.262482	0.090304	0.490866	4940.252441
5790.276045	1.071185	0.430796	473.463928
5790.277013	1.543912	0.430796	1967.970947
5790.277944	1.528773	0.430796	3391.258789
5790.278857	0.793231	0.430796	4115.479004
5790.279785	0.097269	0.430796	4205.745117
5790.280708	0.090106	0.430796	4288.913086
5790.281634	0.090201	0.430796	4372.439453
5790.282532	0.090220	0.430796	4453.456543
5790.283466	0.090234	0.430796	4537.735352
5790.284398	0.090220	0.430796	4621.820312
5790.285318	0.090146	0.430796	4704.754883
5790.286207	0.090242	0.430796	4784.979980
5790.287143	0.090165	0.430796	4869.374023
5790.288077	0.090216	0.430796	4953.635742
5791.299526	1.066959	0.469593	464.127289
5791.300468	1.542634	0.469593	1917.288940
5791.301421	1.528868	0.469593	3374.300293
5791.302350	0.787841	0.469593	4106.204102
5791.303248	0.097148	0.469593	4193.443359
5791.304202	0.090253	0.469593	4279.544434
5791.305140	0.090223	0.469593	4364.173828
5791.306040	0.090245	0.469593	4445.394531
5791.306956	0.090260	0.469593	4528.072754
5791.307900	0.090300	0.469593	4613.316406
5791.308815	0.090157	0.469593	4695.810547
5791.309708	0.090278	0.469593	4776.429199
5791.310640	0.090168	0.469593	4860.466309
5791.311569	0.090249	0.469593	4944.307617
5792.297457	1.084867	0.394916	512.057251
5792.298371	1.544231	0.394916	1923.484375
5792.299268	1.530861	0.394916	3296.666260
5792.300206	0.853960	0.394916	4097.680664
5792.301147	0.098408	0.394916	4190.282715
5792.302067	0.090165	0.394916	4273.234375
5792.302955	0.090238	0.394916	4353.365723
5792.303889	0.090157	0.394916	4437.572754
5792.304829	0.090209	0.394916	4522.369141
5792.305755	0.090205	0.394916	4605.898926
5792.306655	0.090216	0.394916	4687.093262
5792.307586	0.090198	0.394916	4771.067383
5792.308505	0.090201	0.394916	4853.962402
5792.309433	0.090308	0.394916	4937.768066
5793.337840	1.109202	0.462631	517.997192
5793.338748	1.543813	0.462631	1919.779785
5793.339688	1.529777	0.462631	3357.769775
5793.340596	0.832650	0.462631	4113.815918
5793.341551	0.097042	0.462631	4206.491211
5793.342450	0.090172	0.462631	4287.556152
5793.343345	0.090341	0.462631	4368.411133
5793.344233	0.090234	0.462631	4448.539062
5793.345177	0.090344	0.462631	4533.824219
5793.346083	0.090264	0.462631	4615.603027
5793.346987	0.090176	0.462631	4697.122070
5793.347924	0.090330	0.462631	4781.760742
5793.348823	0.090333	0.462631	4862.970215
5793.349722	0.090238	0.462631	4944.094238
5794.334679	1.078103	0.440915	478.677765
5794.335594	1.542572	0.440915	1890.131104
5794.336495	1.531578	0.440915	3270.083252
5794.337397	0.909214	0.440915	4090.194336
5794.338354	0.099148	0.440915	4185.079102
5794.339261	0.090216	0.440915	4266.905273
5794.340161	0.090267	0.440915	4348.145996
5794.341096	0.090304	0.440915	4432.580078
5794.341994	0.090348	0.440915	4513.712402
5794.342893	0.090238	0.440915	4594.836426
5794.343784	0.090278	0.440915	4675.274414
5794.344735	0.090300	0.440915	4761.149902
5794.345635	0.090282	0.440915	4842.403809
5794.346534	0.090245	0.440915	4923.534180
5795.371000	1.092986	0.495946	530.098145
5795.371927	1.545242	0.495946	1962.537109
5795.372839	1.529176	0.495946	3357.145508
5795.373742	0.837609	0.495946	4113.505859
5795.374698	0.095988	0.495946	4205.270020
5795.375608	0.090282	0.495946	4287.426758
5795.376514	0.090330	0.495946	4369.265137
5795.377410	0.090238	0.495946	4450.118652
5795.378347	0.090319	0.495946	4534.747070
5795.379252	0.090234	0.495946	4616.409180
5795.380141	0.090264	0.495946	4696.653809
5795.381081	0.090209	0.495946	4781.450195
5795.381986	0.090396	0.495946	4863.258301
5795.382885	0.090337	0.495946	4944.471191
5796.373446	1.060580	0.492264	459.231049
5796.374406	1.542715	0.492264	1940.237305
5796.375321	1.529758	0.492264	3339.966309
5796.376234	0.850759	0.492264	4116.709473
5796.377120	0.100594	0.492264	4205.835937
5796.378059	0.090256	0.492264	4290.586426
5796.378960	0.090216	0.492264	4371.871094
5796.379863	0.090308	0.492264	4453.418945
5796.380786	0.090253	0.492264	4536.722168
5796.381690	0.090308	0.492264	4618.360352
5796.382602	0.090264	0.492264	4700.680664
5796.383493	0.090278	0.492264	4781.118652
5796.384426	0.090322	0.492264	4865.389160
5796.385320	0.090256	0.492264	4946.078125
5797.402078	1.089562	0.505227	491.392334
5797.402988	1.542726	0.505227	1895.272827
5797.403884	1.531626	0.505227	3267.609863
5797.404858	0.842212	0.505227	4087.924316
5797.405764	0.098855	0.505227	4177.486816
5797.406671	0.090117	0.505227	4259.223145
5797.407564	0.090253	0.505227	4339.818848
5797.408516	0.090264	0.505227	4425.750000
5797.409419	0.090216	0.505227	4507.215332
5797.410307	0.090190	0.505227	4587.304199
5797.411239	0.090297	0.505227	4671.460449
5797.412143	0.090286	0.505227	4753.078613
5797.413036	0.090172	0.505227	4833.602539
5797.413923	0.090249	0.505227	4913.653320
5798.415830	1.068959	0.511133	476.755554
5798.416730	1.542206	0.511133	1864.740723
5798.417659	1.531117	0.511133	3287.148437
5798.418595	0.861621	0.511133	4093.625732
5798.419495	0.100408	0.511133	4183.992676
5798.420420	0.090282	0.511133	4267.503418
5798.421312	0.090278	0.511133	4348.031738
5798.422257	0.090238	0.511133	4433.306641
5798.423154	0.090176	0.511133	4514.194336
5798.424044	0.090220	0.511133	4594.489746
5798.424977	0.090289	0.511133	4678.729492
5798.425886	0.090293	0.511133	4760.805664
5798.426801	0.090355	0.511133	4843.480469
5798.427698	0.090260	0.511133	4924.443848
5799.435743	1.074155	0.503914	481.221527
5799.436641	1.541118	0.503914	1865.145630
5799.437534	1.530970	0.503914	3232.302246
5799.438507	0.867067	0.503914	4075.958008
5799.439403	0.100173	0.503914	4165.713379
5799.440322	0.090176	0.503914	4248.584961
5799.441215	0.090256	0.503914	4329.184082
5799.442170	0.090223	0.503914	4415.347656
5799.443069	0.090143	0.503914	4496.386230
5799.443960	0.090245	0.503914	4576.794922
5799.444890	0.090231	0.503914	4660.709473
5799.445792	0.090176	0.503914	4742.047852
5799.446708	0.090223	0.503914	4824.692383
5799.447595	0.090352	0.503914	4904.833984
5800.459232	1.081450	0.497843	483.408264
5800.460133	1.541510	0.497843	1872.308838
5800.461025	1.531197	0.497843	3238.136963
5800.461992	0.875618	0.497843	4084.859131
5800.462889	0.101067	0.497843	4175.516113
5800.463810	0.090157	0.497843	4258.551270
5800.464712	0.090216	0.497843	4339.926270
5800.465649	0.090183	0.497843	4424.427734
5800.466568	0.090095	0.497843	4507.225098
5800.467467	0.090234	0.497843	4588.345703
5800.468395	0.090209	0.497843	4672.059570
5800.469320	0.090209	0.497843	4755.502441
5800.470237	0.090187	0.497843	4838.203613
5800.471128	0.090267	0.497843	4918.631836
5801.473515	1.099676	0.483845	505.851196
5801.474410	1.542253	0.483845	1886.167969
5801.475369	1.528612	0.483845	3352.106934
5801.476275	0.831826	0.483845	4105.741211
5801.477190	0.098005	0.483845	4195.416016
5801.478088	0.090114	0.483845	4276.337891
5801.479043	0.090150	0.483845	4362.431152
5801.479966	0.090154	0.483845	4445.643066
5801.480863	0.090275	0.483845	4526.619629
5801.481799	0.090227	0.483845	4611.072266
5801.482714	0.090194	0.483845	4693.600098
5801.483640	0.090245	0.483845	4777.167480
5801.484533	0.090253	0.483845	4857.763184
5801.485452	0.090223	0.483845	4940.678711
5802.499065	1.115182	0.482620	544.208801
5802.500018	1.544755	0.482620	2016.359863
5802.500944	1.526697	0.482620	3430.081055
5802.501845	0.767725	0.482620	4121.800781
5802.502797	0.095361	0.482620	4212.584961
5802.503738	0.090216	0.482620	4297.478516
5802.504628	0.090176	0.482620	4377.734863
5802.505545	0.090209	0.482620	4460.456055
5802.506481	0.090194	0.482620	4544.877930
5802.507401	0.090205	0.482620	4627.866699
5802.508299	0.090238	0.482620	4708.900391
5802.509251	0.090205	0.482620	4794.775391
5802.510183	0.090231	0.482620	4878.870605
5802.511085	0.090117	0.482620	4960.156250
5803.507669	1.074759	0.466233	476.118439
5803.508565	1.541177	0.466233	1857.012695
5803.509532	1.529015	0.466233	3335.570068
5803.510464	0.819954	0.466233	4099.766602
5803.511349	0.098994	0.466233	4187.376465
5803.512269	0.090154	0.466233	4270.317871
5803.513203	0.090146	0.466233	4354.514648
5803.514132	0.090223	0.466233	4438.332031
5803.515022	0.090201	0.466233	4518.611328
5803.515944	0.090187	0.466233	4601.763672
5803.516870	0.090183	0.466233	4685.273437
5803.517796	0.090201	0.466233	4768.799805
5803.518690	0.090139	0.466233	4849.384277
5803.519614	0.090201	0.466233	4932.730469
5804.532725	1.099947	0.468501	525.774902
5804.533664	1.544476	0.468501	1976.038086
5804.534594	1.527616	0.468501	3396.720947
5804.535492	0.798040	0.468501	4113.360352
5804.536442	0.096248	0.468501	4204.795410
5804.537376	0.090154	0.468501	4288.999023
5804.538299	0.090190	0.468501	4372.244629
5804.539194	0.090198	0.468501	4452.971680
5804.540134	0.090260	0.468501	4537.815918
5804.541039	0.090297	0.468501	4619.534180
5804.541943	0.090198	0.468501	4701.072754
5804.542832	0.090172	0.468501	4781.235840
5804.543779	0.090260	0.468501	4866.711914
5804.544680	0.090278	0.468501	4948.052734
5805.540326	1.076407	0.468505	500.529449
5805.541237	1.543345	0.468505	1906.516479
5805.542135	1.529985	0.468505	3280.443359
5805.543111	0.819203	0.468505	4079.985352
5805.544047	0.096914	0.468505	4170.696777
5805.544944	0.090128	0.468505	4251.541992
5805.545861	0.090209	0.468505	4334.263184
5805.546778	0.090139	0.468505	4416.920898
5805.547716	0.090099	0.468505	4501.433594
5805.548614	0.090168	0.468505	4582.404785
5805.549537	0.090198	0.468505	4665.657227
5805.550477	0.090106	0.468505	4750.356934
5805.551391	0.090227	0.468505	4832.824219
5805.552282	0.090179	0.468505	4913.174316
5806.564818	1.076484	0.475272	479.035522
5806.565720	1.542147	0.475272	1870.052246
5806.566666	1.530143	0.475272	3317.567383
5806.567591	0.854938	0.475272	4108.384766
5806.568503	0.099617	0.475272	4199.235352
5806.569401	0.090190	0.475272	4280.226562
5806.570351	0.090260	0.475272	4365.973633
5806.571262	0.090106	0.475272	4448.060547
5806.572148	0.090143	0.475272	4527.927246
5806.573072	0.090209	0.475272	4611.280273
5806.573989	0.090271	0.475272	4694.058594
5806.574900	0.090146	0.475272	4776.182129
5806.575798	0.090176	0.475272	4857.160156
5806.576736	0.090275	0.475272	4941.837891
5807.577039	1.077462	0.483732	474.083313
5807.577957	1.542184	0.483732	1889.808105
5807.578864	1.530707	0.483732	3278.159180
5807.579817	0.868026	0.483732	4105.388184
5807.580718	0.100642	0.483732	4196.066895
5807.581614	0.090103	0.483732	4276.798828
5807.582505	0.090253	0.483732	4357.213867
5807.583434	0.090249	0.483732	4441.055176
5807.584333	0.090256	0.483732	4522.195801
5807.585231	0.090220	0.483732	4603.212891
5807.586118	0.090245	0.483732	4683.260742
5807.587073	0.090300	0.483732	4769.497559
5807.587981	0.090194	0.483732	4851.393555
5807.588877	0.090103	0.483732	4932.125488
5808.596957	1.087009	0.491353	489.154175
5808.597887	1.542601	0.491353	1923.773315
5808.598789	1.530157	0.491353	3303.975342
5808.599689	0.884868	0.491353	4100.356934
5808.600638	0.098247	0.491353	4193.593262
5808.601542	0.090165	0.491353	4275.102051
5808.602432	0.090242	0.491353	4355.416992
5808.603361	0.090271	0.491353	4439.278809
5808.604274	0.090264	0.491353	4521.689453
5808.605178	0.090198	0.491353	4603.228027
5808.606066	0.090139	0.491353	4683.271484
5808.607012	0.090245	0.491353	4768.643555
5808.607922	0.090212	0.491353	4850.736816
5808.608817	0.090154	0.491353	4931.424316
5809.617379	1.086204	0.486391	488.791595
5809.618283	1.541982	0.486391	1882.743774
5809.619178	1.531311	0.486391	3253.267090
5809.620142	0.855677	0.486391	4078.140137
5809.621060	0.099166	0.486391	4169.174805
5809.621959	0.090282	0.486391	4250.338379
5809.622851	0.090260	0.486391	4330.850098
5809.623816	0.090293	0.486391	4417.982910
5809.624712	0.090190	0.486391	4498.793457
5809.625605	0.090275	0.486391	4579.408691
5809.626522	0.090308	0.486391	4662.220703
5809.627439	0.090220	0.486391	4744.952148
5809.628333	0.090212	0.486391	4825.602051
5809.629220	0.090216	0.486391	4905.623535
5810.629067	1.068138	0.498435	471.049072
5810.629963	1.540895	0.498435	1851.690796
5810.630957	1.528253	0.498435	3370.774414
5810.631881	0.797329	0.498435	4107.506348
5810.632770	0.097863	0.498435	4194.506348
5810.633713	0.090264	0.498435	4279.625000
5810.634627	0.090179	0.498435	4362.048828
5810.635533	0.090194	0.498435	4443.764648
5810.636429	0.090315	0.498435	4524.687012
5810.637372	0.090297	0.498435	4609.836914
5810.638290	0.090154	0.498435	4692.598145
5810.639207	0.090220	0.498435	4775.329590
5810.640097	0.090223	0.498435	4855.628418
5810.641053	0.090194	0.498435	4941.854004
5811.658233	1.099797	0.500610	526.802917
5811.659164	1.544000	0.500610	1964.267090
5811.660063	1.528986	0.500610	3338.825195
5811.660999	0.819869	0.500610	4106.222656
5811.661933	0.096936	0.500610	4196.760742
5811.662844	0.090190	0.500610	4278.924316
5811.663741	0.090209	0.500610	4359.841797
5811.664672	0.090227	0.500610	4443.843262
5811.665614	0.090168	0.500610	4528.781738
5811.666514	0.090161	0.500610	4609.926758
5811.667432	0.090209	0.500610	4692.738281
5811.668380	0.090249	0.500610	4778.294434
5811.669300	0.090201	0.500610	4861.279785
5811.670193	0.090267	0.500610	4941.888672
5812.659145	1.063528	0.523262	463.698120
5812.660047	1.541063	0.523262	1853.737061
5812.660998	1.529718	0.523262	3308.499023
5812.661924	0.860728	0.523262	4105.532715
5812.662841	0.098708	0.523262	4196.048340
5812.663742	0.090135	0.523262	4277.260254
5812.664689	0.090220	0.523262	4362.698242
5812.665618	0.090260	0.523262	4446.549805
5812.666545	0.090275	0.523262	4530.234375
5812.667445	0.090231	0.523262	4611.441895
5812.668385	0.090183	0.523262	4696.213867
5812.669321	0.090201	0.523262	4780.642578
5812.670212	0.090227	0.523262	4861.034668
5812.671128	0.090194	0.523262	4943.652344
5813.696976	1.072233	0.536189	472.854584
5813.697912	1.541217	0.536189	1915.433716
5813.698864	1.528242	0.536189	3370.320312
5813.699813	0.774053	0.536189	4104.896484
5813.700702	0.096914	0.536189	4191.053223
5813.701619	0.090150	0.536189	4273.720703
5813.702558	0.090198	0.536189	4358.416504
5813.703477	0.090227	0.536189	4441.334961
5813.704368	0.090260	0.536189	4521.756836
5813.705311	0.090231	0.536189	4606.844238
5813.706244	0.090201	0.536189	4691.001953
5813.707138	0.090249	0.536189	4771.684570
5813.708062	0.090220	0.536189	4855.047363
5813.709003	0.090249	0.536189	4939.971680
5814.692327	1.077056	0.525292	501.907898
5814.693236	1.543052	0.525292	1904.541992
5814.694171	1.529220	0.525292	3334.362549
5814.695133	0.801599	0.525292	4105.500977
5814.696058	0.096204	0.525292	4194.489258
5814.696950	0.090179	0.525292	4274.929199
5814.697856	0.090198	0.525292	4356.648437
5814.698788	0.090135	0.525292	4440.654785
5814.699723	0.090216	0.525292	4525.006836
5814.700622	0.090260	0.525292	4606.150391
5814.701536	0.090223	0.525292	4688.614746
5814.702474	0.090183	0.525292	4773.206543
5814.703386	0.090286	0.525292	4855.546875
5814.704273	0.090179	0.525292	4935.536133
5815.728614	1.091686	0.554985	497.808777
5815.729576	1.544436	0.554985	1983.556152
5815.730498	1.527440	0.554985	3391.855957
5815.731409	0.794301	0.554985	4115.463867
5815.732344	0.096064	0.554985	4205.284180
5815.733277	0.090183	0.554985	4289.424805
5815.734191	0.090198	0.554985	4371.865723
5815.735089	0.090260	0.554985	4452.919434
5815.736053	0.090344	0.554985	4540.011230
5815.736961	0.090271	0.554985	4621.977539
5815.737859	0.090220	0.554985	4702.994629
5815.738765	0.090201	0.554985	4784.717285
5815.739683	0.090363	0.554985	4867.669922
5815.740588	0.090216	0.554985	4949.315430
5816.731603	1.076364	0.492058	481.134521
5816.732553	1.543784	0.492058	1947.729492
5816.733469	1.528337	0.492058	3347.686523
5816.734384	0.833694	0.492058	4110.516602
5816.735279	0.099434	0.492058	4199.509766
5816.736228	0.090275	0.492058	4285.180176
5816.737136	0.090234	0.492058	4367.112793
5816.738035	0.090187	0.492058	4448.190918
5816.738976	0.090271	0.492058	4533.135742
5816.739875	0.090095	0.492058	4614.131348
5816.740773	0.090216	0.492058	4695.145508
5816.741661	0.090139	0.492058	4775.188965
5816.742593	0.090293	0.492058	4859.341797
5816.743496	0.090289	0.492058	4940.873047
5817.760229	1.092612	0.557893	502.601654
5817.761130	1.542250	0.557893	1892.168701
5817.762023	1.530059	0.557893	3258.511230
5817.762982	0.853887	0.557893	4077.388672
5817.763886	0.099763	0.557893	4167.574707
5817.764775	0.090132	0.557893	4247.702148
5817.765685	0.090176	0.557893	4329.762207
5817.766621	0.090234	0.557893	4414.221680
5817.767526	0.090253	0.557893	4495.900391
5817.768417	0.090216	0.557893	4576.282715
5817.769365	0.090242	0.557893	4661.832031
5817.770267	0.090234	0.557893	4743.223633
5817.771166	0.090209	0.557893	4824.321289
5817.772051	0.090238	0.557893	4904.182129
5818.780634	1.073324	0.502500	484.069122
5818.781536	1.541565	0.502500	1874.560669
5818.782500	1.529150	0.502500	3348.661621
5818.783427	0.814728	0.502500	4103.914062
5818.784327	0.097991	0.502500	4192.105469
5818.785221	0.090179	0.502500	4272.726074
5818.786158	0.090267	0.502500	4357.306641
5818.787064	0.090161	0.502500	4438.992676
5818.787963	0.090172	0.502500	4520.057617
5818.788857	0.090190	0.502500	4600.687988
5818.789797	0.090220	0.502500	4685.494629
5818.790704	0.090168	0.502500	4767.277344
5818.791590	0.090110	0.502500	4847.114746
5818.792534	0.090187	0.502500	4932.250977
5819.789792	1.082497	0.593044	484.958862
5819.790696	1.541726	0.593044	1878.679199
5819.791588	1.531022	0.593044	3244.350586
5819.792543	0.884227	0.593044	4088.787598
5819.793452	0.101177	0.593044	4180.757324
5819.794356	0.090150	0.593044	4262.252930
5819.795243	0.090264	0.593044	4342.316895
5819.796167	0.090300	0.593044	4425.754395
5819.797088	0.090311	0.593044	4508.931152
5819.798006	0.090231	0.593044	4591.763184
5819.798894	0.090201	0.593044	4671.861816
5819.799842	0.090212	0.593044	4757.383301
5819.800743	0.090271	0.593044	4838.717285
5819.801641	0.090238	0.593044	4919.750977
5820.824542	1.076052	0.543460	484.223480
5820.825444	1.541843	0.543460	1874.966187
5820.826391	1.529780	0.543460	3323.667969
5820.827332	0.826344	0.543460	4101.257812
5820.828245	0.098042	0.543460	4190.770020
5820.829130	0.090249	0.543460	4270.640625
5820.830071	0.090234	0.543460	4355.551270
5820.830985	0.090212	0.543460	4438.005371
5820.831901	0.090293	0.543460	4520.713867
5820.832793	0.090282	0.543460	4601.245605
5820.833742	0.090264	0.543460	4686.905762
5820.834664	0.090190	0.543460	4770.061523
5820.835557	0.090253	0.543460	4850.657227
5820.836493	0.090275	0.543460	4935.154297
5821.820882	1.073522	0.599099	476.643646
5821.821781	1.541210	0.599099	1862.191162
5821.822677	1.530487	0.599099	3233.507568
5821.823652	0.866374	0.599099	4078.222656
5821.824582	0.099349	0.599099	4170.617676
5821.825475	0.090231	0.599099	4251.193848
5821.826414	0.090245	0.599099	4335.934082
5821.827334	0.090242	0.599099	4418.956543
5821.828252	0.090216	0.599099	4501.774902
5821.829152	0.090212	0.599099	4582.965820
5821.830097	0.090212	0.599099	4668.216309
5821.831018	0.090275	0.599099	4751.359375
5821.831937	0.090260	0.599099	4834.308105
5821.832828	0.090282	0.599099	4914.749512
5822.856140	1.067831	0.556302	467.709900
5822.857099	1.542989	0.556302	1947.436768
5822.858038	1.527510	0.556302	3381.768555
5822.858973	0.781930	0.556302	4112.873047
5822.859858	0.097225	0.556302	4198.917480
5822.860804	0.090146	0.556302	4284.196289
5822.861738	0.090304	0.556302	4368.540039
5822.862642	0.090300	0.556302	4450.171387
5822.863566	0.090234	0.556302	4533.547852
5822.864505	0.090253	0.556302	4618.294922
5822.865434	0.090311	0.556302	4702.194336
5822.866331	0.090201	0.556302	4783.104980
5822.867252	0.090249	0.556302	4866.224121
5822.868184	0.090242	0.556302	4950.329590
5823.859144	1.064696	0.548491	465.272125
5823.860064	1.540173	0.548491	1882.231567
5823.861018	1.528088	0.548491	3340.027832
5823.861982	0.768970	0.548491	4081.314697
5823.862878	0.096537	0.548491	4167.811523
5823.863797	0.090117	0.548491	4250.629395
5823.864741	0.090179	0.548491	4335.758789
5823.865667	0.090194	0.548491	4419.278320
5823.866556	0.090117	0.548491	4499.392578
5823.867508	0.090157	0.548491	4585.222656
5823.868447	0.090205	0.548491	4669.925293
5823.869339	0.090275	0.548491	4750.450195
5823.870264	0.090201	0.548491	4833.886719
5823.871185	0.090176	0.548491	4916.938477
5824.885733	1.087526	0.545313	494.824158
5824.886633	1.542081	0.545313	1882.697266
5824.887558	1.529396	0.545313	3297.388428
5824.888514	0.818057	0.545313	4079.450684
5824.889429	0.097610	0.545313	4168.763672
5824.890327	0.090227	0.545313	4249.787598
5824.891287	0.090205	0.545313	4336.384277
5824.892222	0.090209	0.545313	4420.729492
5824.893123	0.090194	0.545313	4501.994141
5824.894039	0.090135	0.545313	4584.558105
5824.894981	0.090139	0.545313	4669.469238
5824.895898	0.090267	0.545313	4752.244141
5824.896786	0.090249	0.545313	4832.385254
5824.897733	0.090201	0.545313	4917.806152
5825.906634	1.068080	0.556213	468.887054
5825.907535	1.540342	0.556213	1856.735107
5825.908517	1.527839	0.556213	3357.073242
5825.909449	0.800310	0.556213	4102.962402
5825.910345	0.097606	0.556213	4190.417480
5825.911276	0.090293	0.556213	4274.480469
5825.912178	0.090319	0.556213	4355.947754
5825.913077	0.090168	0.556213	4437.009277
5825.913968	0.090242	0.556213	4517.414551
5825.914896	0.090260	0.556213	4601.175781
5825.915794	0.090326	0.556213	4682.288574
5825.916699	0.090271	0.556213	4763.983887
5825.917585	0.090264	0.556213	4843.957520
5825.918531	0.090319	0.556213	4929.398926
5826.917321	1.066274	0.572613	467.028198
5826.918301	1.543982	0.572613	1980.130493
5826.919216	1.527667	0.572613	3377.946045
5826.920115	0.826772	0.572613	4121.214355
5826.921043	0.098969	0.572613	4213.057129
5826.921952	0.090304	0.572613	4295.143555
5826.922861	0.090278	0.572613	4377.206543
5826.923762	0.090330	0.572613	4458.593262
5826.924699	0.090315	0.572613	4543.218262
5826.925600	0.090326	0.572613	4624.602051
5826.926498	0.090198	0.572613	4705.599609
5826.927389	0.090278	0.572613	4786.037598
5826.928332	0.090337	0.572613	4871.225098
5826.929224	0.090253	0.572613	4951.730469
5827.951634	1.123982	0.600932	578.850708
5827.952546	1.544857	0.600932	1987.760376
5827.953453	1.527371	0.600932	3373.085449
5827.954357	0.814896	0.600932	4109.751465
5827.955291	0.096211	0.600932	4199.612305
5827.956190	0.090114	0.600932	4280.624512
5827.957079	0.090260	0.600932	4360.865723
5827.957990	0.090264	0.600932	4443.095703
5827.958907	0.090352	0.600932	4525.948242
5827.959806	0.090227	0.600932	4607.062500
5827.960697	0.090223	0.600932	4687.451660
5827.961622	0.090293	0.600932	4770.972656
5827.962538	0.090264	0.600932	4853.654297
5827.963444	0.090209	0.600932	4935.383301
5828.950475	1.060609	0.579336	459.243805
5828.951416	1.540964	0.579336	1909.291138
5828.952343	1.528462	0.579336	3326.175293
5828.953262	0.849701	0.579336	4107.050293
5828.954153	0.100232	0.579336	4196.356934
5828.955111	0.090212	0.579336	4282.780273
5828.956016	0.090242	0.579336	4364.449219
5828.956915	0.090238	0.579336	4445.573242
5828.957807	0.090253	0.579336	4526.078613
5828.958746	0.090201	0.579336	4610.777832
5828.959653	0.090172	0.579336	4692.563965
5828.960544	0.090179	0.579336	4772.914062
5828.961486	0.090300	0.579336	4857.977051
5828.962399	0.090275	0.579336	4940.397949
5829.985229	1.083611	0.612630	481.123169
5829.986177	1.543176	0.612630	1944.054321
5829.987123	1.526990	0.612630	3388.586426
5829.988031	0.806166	0.612630	4120.584961
5829.988970	0.097537	0.612630	4212.171875
5829.989884	0.090231	0.612630	4294.642578
5829.990801	0.090256	0.612630	4377.407715
5829.991687	0.090234	0.612630	4457.355469
5829.992652	0.090172	0.612630	4544.371582
5829.993579	0.090183	0.612630	4627.971191
5829.994470	0.090282	0.612630	4708.412598
5829.995384	0.090201	0.612630	4790.856445
5829.996311	0.090205	0.612630	4874.476562
5829.997231	0.090231	0.612630	4957.488770
5830.986749	1.125721	0.544278	549.351990
5830.987657	1.543693	0.544278	1951.024902
5830.988561	1.528019	0.544278	3332.354004
5830.989520	0.795099	0.544278	4094.853760
5830.990437	0.096365	0.544278	4183.220215
5830.991337	0.090212	0.544278	4264.411133
5830.992273	0.090231	0.544278	4348.867187
5830.993191	0.090220	0.544278	4431.688965
5830.994121	0.090190	0.544278	4515.565918
5830.995015	0.090190	0.544278	4596.196289
5830.995975	0.090231	0.544278	4682.817871
5830.996897	0.090209	0.544278	4765.990234
5830.997789	0.090234	0.544278	4846.479492
5830.998708	0.090253	0.544278	4929.421875
5832.017386	1.095073	0.582406	497.163239
5832.018288	1.542118	0.582406	1888.153564
5832.019228	1.528345	0.582406	3324.797607
5832.020187	0.804664	0.582406	4096.470703
5832.021107	0.097130	0.582406	4185.830566
5832.021994	0.090081	0.582406	4265.731934
5832.022931	0.090209	0.582406	4350.257324
5832.023868	0.090190	0.582406	4434.765625
5832.024765	0.090146	0.582406	4515.626953
5832.025685	0.090220	0.582406	4598.628906
5832.026629	0.090234	0.582406	4683.810059
5832.027561	0.090205	0.582406	4767.881348
5832.028459	0.090275	0.582406	4848.947754
5832.029374	0.090179	0.582406	4931.461914
5833.025482	1.069633	0.513602	470.638306
5833.026464	1.543283	0.513602	1986.141724
5833.027392	1.526887	0.513602	3403.093018
5833.028297	0.796501	0.513602	4123.926758
5833.029217	0.097460	0.513602	4213.589844
5833.030162	0.090114	0.513602	4298.747070
5833.031083	0.090179	0.513602	4381.802246
5833.031977	0.090190	0.513602	4462.432617
5833.032916	0.090253	0.513602	4547.179687
5833.033853	0.090326	0.513602	4631.814941
5833.034773	0.090238	0.513602	4714.833984
5833.035667	0.090176	0.513602	4795.451172
5833.036600	0.090128	0.513602	4879.540527
5833.037542	0.090187	0.513602	4964.496582
5834.050038	1.111706	0.584964	534.730835
5834.050978	1.544128	0.584964	1986.211548
5834.051907	1.526627	0.584964	3404.448242
5834.052810	0.791968	0.584964	4119.595215
5834.053753	0.096108	0.584964	4210.225586
5834.054679	0.090172	0.584964	4293.725098
5834.055574	0.090168	0.584964	4374.425781
5834.056496	0.090201	0.584964	4457.591309
5834.057429	0.090216	0.584964	4541.762695
5834.058356	0.090256	0.584964	4625.430176
5834.059253	0.090300	0.584964	4706.429687
5834.060184	0.090238	0.584964	4790.441406
5834.061095	0.090286	0.584964	4872.691406
5834.062004	0.090209	0.584964	4954.690918
5835.067374	1.106503	0.534698	510.097717
5835.068293	1.543041	0.534698	1928.152100
5835.069202	1.529205	0.534698	3318.199707
5835.070108	0.864708	0.534698	4101.625488
5835.071044	0.098401	0.534698	4193.728516
5835.071951	0.090132	0.534698	4275.478027
5835.072846	0.090344	0.534698	4356.335937
5835.073780	0.090223	0.534698	4440.604492
5835.074690	0.090311	0.534698	4522.787598
5835.075590	0.090179	0.534698	4603.949219
5835.076479	0.090264	0.534698	4684.193848
5835.077428	0.090348	0.534698	4769.934082
5835.078329	0.090190	0.534698	4851.195801
5835.079226	0.090190	0.534698	4932.096680
5836.083142	1.057584	0.613798	455.818787
5836.084092	1.541052	0.613798	1919.818359
5836.085011	1.528638	0.613798	3324.636475
5836.085923	0.862269	0.613798	4111.025879
5836.086814	0.100763	0.613798	4200.805664
5836.087769	0.090238	0.613798	4286.982910
5836.088673	0.090212	0.613798	4368.535156
5836.089573	0.090231	0.613798	4449.742676
5836.090463	0.090231	0.613798	4530.047852
5836.091400	0.090275	0.613798	4614.635254
5836.092292	0.090194	0.613798	4695.088379
5836.093185	0.090300	0.613798	4775.726562
5836.094128	0.090234	0.613798	4860.817383
5836.095042	0.090253	0.613798	4943.308105
5837.111784	1.089298	0.571908	496.719940
5837.112687	1.542407	0.571908	1889.513672
5837.113581	1.530278	0.571908	3257.582520
5837.114530	0.870062	0.571908	4083.271484
5837.115441	0.099899	0.571908	4174.279297
5837.116364	0.090161	0.571908	4257.498047
5837.117253	0.090205	0.571908	4337.690430
5837.118211	0.090220	0.571908	4424.121094
5837.119114	0.090245	0.571908	4505.612793
5837.120003	0.090264	0.571908	4585.857422
5837.120935	0.090311	0.571908	4670.027344
5837.121851	0.090253	0.571908	4752.698730
5837.122746	0.090201	0.571908	4833.429199
5837.123663	0.090297	0.571908	4916.231445
5838.119404	1.108195	0.647402	515.310486
5838.120313	1.542784	0.647402	1917.701660
5838.121215	1.528737	0.647402	3296.622070
5838.122176	0.833522	0.647402	4097.636719
5838.123103	0.097859	0.647402	4188.352051
5838.123992	0.090157	0.647402	4268.501953
5838.124926	0.090190	0.647402	4352.739746
5838.125844	0.090161	0.647402	4435.507812
5838.126761	0.090253	0.647402	4518.269531
5838.127660	0.090278	0.647402	4599.429687
5838.128615	0.090172	0.647402	4685.543945
5838.129533	0.090194	0.647402	4768.342285
5838.130420	0.090315	0.647402	4848.451660
5838.131352	0.090253	0.647402	4932.567383
5839.150564	1.086134	0.588520	493.104858
5839.151458	1.541924	0.588520	1871.584839
5839.152401	1.528861	0.588520	3313.300781
5839.153348	0.817588	0.588520	4087.556396
5839.154263	0.097584	0.588520	4176.846191
5839.155160	0.090223	0.588520	4257.776367
5839.156109	0.090293	0.588520	4343.464355
5839.157052	0.090256	0.588520	4428.576172
5839.157952	0.090245	0.588520	4509.796875
5839.158865	0.090238	0.588520	4592.184082
5839.159797	0.090289	0.588520	4676.333496
5839.160715	0.090308	0.588520	4759.235840
5839.161605	0.090223	0.588520	4839.534668
5839.162551	0.090132	0.588520	4924.799316
5840.155085	1.080860	0.669917	477.740326
5840.156067	1.543378	0.669917	1993.337158
5840.156994	1.526605	0.669917	3408.500244
5840.157892	0.801540	0.669917	4128.283691
5840.158829	0.097145	0.669917	4219.308105
5840.159768	0.090066	0.669917	4303.879883
5840.160690	0.090201	0.669917	4387.045410
5840.161590	0.090231	0.669917	4468.252930
5840.162509	0.090114	0.669917	4551.067383
5840.163437	0.090110	0.669917	4634.689453
5840.164353	0.090231	0.669917	4717.340820
5840.165247	0.090198	0.669917	4797.977539
5840.166203	0.090179	0.669917	4884.188965
5840.167146	0.090114	0.669917	4969.166016
5841.186793	1.104847	0.596029	509.334656
5841.187709	1.543004	0.596029	1922.726562
5841.188622	1.529388	0.596029	3319.058105
5841.189543	0.862760	0.596029	4113.660156
5841.190465	0.098544	0.596029	4204.517578
5841.191369	0.090176	0.596029	4286.036621
5841.192263	0.090352	0.596029	4366.811035
5841.193208	0.090337	0.596029	4452.179199
5841.194110	0.090297	0.596029	4533.626953
5841.195008	0.090286	0.596029	4614.703613
5841.195899	0.090227	0.596029	4695.095703
5841.196830	0.090344	0.596029	4779.206055
5841.197741	0.090209	0.596029	4861.386230
5841.198647	0.090260	0.596029	4943.161621
5842.190803	1.088123	0.682445	491.831421
5842.191717	1.542707	0.682445	1901.865967
5842.192613	1.530081	0.682445	3272.818115
5842.193585	0.839484	0.682445	4088.796143
5842.194489	0.099430	0.682445	4178.680664
5842.195377	0.090231	0.682445	4258.805664
5842.196309	0.090322	0.682445	4342.985840
5842.197214	0.090308	0.682445	4424.714355
5842.198118	0.090176	0.682445	4506.233398
5842.199008	0.090198	0.682445	4586.509277
5842.199953	0.090278	0.682445	4671.822266
5842.200856	0.090286	0.682445	4753.350098
5842.201762	0.090278	0.682445	4835.142090
5842.202648	0.090304	0.682445	4915.151367
5843.222470	1.064883	0.597347	463.224060
5843.223431	1.541865	0.597347	1944.956543
5843.224358	1.528129	0.597347	3361.531738
5843.225270	0.825370	0.597347	4114.269043
5843.226156	0.099144	0.597347	4202.110840
5843.227101	0.090249	0.597347	4287.395996
5843.227995	0.090114	0.597347	4367.957520
5843.228887	0.090275	0.597347	4448.482422
5843.229801	0.090238	0.597347	4530.959961
5843.230723	0.090297	0.597347	4614.213379
5843.231626	0.090212	0.597347	4695.675293
5843.232518	0.090286	0.597347	4776.209961
5843.233458	0.090275	0.597347	4861.068359
5843.234366	0.090154	0.597347	4942.928223
5844.229074	1.069047	0.687351	473.587646
5844.229969	1.539836	0.687351	1851.741211
5844.230919	1.528326	0.687351	3303.651367
5844.231836	0.862906	0.687351	4094.936523
5844.232726	0.100715	0.687351	4184.573242
5844.233672	0.090161	0.687351	4269.865723
5844.234571	0.090150	0.687351	4350.910645
5844.235491	0.090238	0.687351	4433.929687
5844.236390	0.090183	0.687351	4515.004395
5844.237343	0.090190	0.687351	4600.956055
5844.238247	0.090308	0.687351	4682.594238
5844.239170	0.090238	0.687351	4765.883789
5844.240061	0.090205	0.687351	4846.256348
5844.241007	0.090253	0.687351	4931.635254
5845.258733	1.100028	0.590055	518.113281
5845.259644	1.543579	0.590055	1924.313843
5845.260594	1.527942	0.590055	3375.858398
5845.261527	0.786497	0.590055	4109.659668
5845.262452	0.096343	0.590055	4198.776855
5845.263339	0.090117	0.590055	4278.710937
5845.264294	0.090264	0.590055	4364.912598
5845.265191	0.090161	0.590055	4445.787109
5845.266104	0.090172	0.590055	4528.114258
5845.266999	0.090157	0.590055	4608.805176
5845.267951	0.090256	0.590055	4694.729004
5845.268872	0.090194	0.590055	4777.797852
5845.269757	0.090223	0.590055	4857.645508
5845.270693	0.090249	0.590055	4942.118652
5846.267903	1.137030	0.675693	554.870667
5846.268842	1.544128	0.675693	2004.807129
5846.269768	1.526239	0.675693	3418.104492
5846.270673	0.788148	0.675693	4131.378906
5846.271618	0.095658	0.675693	4221.775879
5846.272546	0.090146	0.675693	4305.431641
5846.273444	0.090201	0.675693	4386.432617
5846.274367	0.090212	0.675693	4469.698730
5846.275312	0.090223	0.675693	4554.959961
5846.276224	0.090216	0.675693	4637.236816
5846.277115	0.090168	0.675693	4717.577148
5846.278066	0.090190	0.675693	4803.348145
5846.279004	0.090143	0.675693	4887.902344
5846.279917	0.090223	0.675693	4970.276367
5847.295968	1.080048	0.584388	488.181519
5847.296860	1.541444	0.584388	1863.149658
5847.297794	1.529557	0.584388	3291.755859
5847.298756	0.812582	0.584388	4073.459473
5847.299677	0.096808	0.584388	4162.619629
5847.300575	0.090165	0.584388	4243.587402
5847.301532	0.090212	0.584388	4329.920898
5847.302476	0.090132	0.584388	4415.005371
5847.303371	0.090311	0.584388	4495.833984
5847.304289	0.090179	0.584388	4578.618652
5847.305227	0.090157	0.584388	4663.186523
5847.306169	0.090095	0.584388	4748.056152
5847.307073	0.090157	0.584388	4829.558594
5847.307995	0.090179	0.584388	4912.704102
5848.307698	1.093048	0.650375	522.476990
5848.308647	1.543707	0.650375	1987.455078
5848.309567	1.526407	0.650375	3391.750000
5848.310468	0.802764	0.650375	4115.040039
5848.311419	0.096090	0.650375	4206.421875
5848.312354	0.090157	0.650375	4290.719238
5848.313256	0.090179	0.650375	4372.061035
5848.314174	0.090205	0.650375	4454.869141
5848.315104	0.090114	0.650375	4538.674805
5848.316034	0.090271	0.650375	4622.626953
5848.316934	0.090201	0.650375	4703.808105
5848.317851	0.090139	0.650375	4786.465820
5848.318782	0.090088	0.650375	4870.337891
5848.319709	0.090187	0.650375	4953.940918
5849.331713	1.113882	0.564451	543.574341
5849.332652	1.545187	0.564451	1994.504761
5849.333549	1.528165	0.564451	3365.269043
5849.334489	0.773859	0.564451	4092.696289
5849.335421	0.095691	0.564451	4181.880371
5849.336352	0.090212	0.564451	4265.868164
5849.337249	0.090253	0.564451	4346.824707
5849.338169	0.090212	0.564451	4429.820312
5849.339111	0.090245	0.564451	4514.831543
5849.340026	0.090143	0.564451	4597.312012
5849.340913	0.090264	0.564451	4677.375977
5849.341856	0.090260	0.564451	4762.491211
5849.342791	0.090216	0.564451	4846.843262
5849.343686	0.090245	0.564451	4927.612793
5850.349050	1.114574	0.616824	531.651855
5850.349957	1.543085	0.616824	1931.229736
5850.350855	1.528971	0.616824	3304.245605
5850.351811	0.811135	0.616824	4079.690918
5850.352759	0.096398	0.616824	4171.076172
5850.353656	0.090190	0.616824	4251.977051
5850.354579	0.090161	0.616824	4335.195801
5850.355520	0.090168	0.616824	4420.044434
5850.356429	0.090319	0.616824	4502.144043
5850.357315	0.090139	0.616824	4582.007324
5850.358260	0.090125	0.616824	4667.174805
5850.359190	0.090187	0.616824	4751.048340
5850.360084	0.090198	0.616824	4831.685059
5850.361013	0.090172	0.616824	4915.455078
5851.364846	1.094308	0.550143	520.890564
5851.365781	1.544026	0.550143	1964.554687
5851.366712	1.527162	0.550143	3386.342285
5851.367615	0.803613	0.550143	4112.004883
5851.368571	0.095940	0.550143	4203.723633
5851.369508	0.090187	0.550143	4288.228516
5851.370407	0.090201	0.550143	4369.319824
5851.371329	0.090183	0.550143	4452.468750
5851.372273	0.090264	0.550143	4537.677734
5851.373181	0.090234	0.550143	4619.610352
5851.374080	0.090223	0.550143	4700.721191
5851.375016	0.090179	0.550143	4785.128906
5851.375951	0.090205	0.550143	4869.470703
5851.376851	0.090176	0.550143	4950.628906
5852.389326	1.072672	0.596952	471.975677
5852.390243	1.541440	0.596952	1885.476562
5852.391153	1.529279	0.596952	3277.120117
5852.392120	0.833877	0.596952	4083.479004
5852.393025	0.098628	0.596952	4172.737305
5852.393928	0.090183	0.596952	4254.172852
5852.394815	0.090154	0.596952	4334.139160
5852.395757	0.090245	0.596952	4419.150391
5852.396658	0.090128	0.596952	4500.355957
5852.397553	0.090216	0.596952	4581.099121
5852.398471	0.090190	0.596952	4663.894043
5852.399393	0.090190	0.596952	4747.049805
5852.400297	0.090110	0.596952	4828.509277
5852.401197	0.090168	0.596952	4909.661133
5853.396433	1.084406	0.555239	483.644867
5853.397342	1.541733	0.555239	1885.080566
5853.398234	1.529810	0.555239	3249.670898
5853.399190	0.872010	0.555239	4083.312988
5853.400100	0.100836	0.555239	4175.073730
5853.400989	0.090168	0.555239	4255.233398
5853.401932	0.090183	0.555239	4340.275879
5853.402830	0.090253	0.555239	4421.322754
5853.403728	0.090249	0.555239	4502.366211
5853.404617	0.090238	0.555239	4582.587891
5853.405557	0.090304	0.555239	4667.473633
5853.406456	0.090220	0.555239	4748.581055
5853.407359	0.090205	0.555239	4830.036133
5853.408247	0.090212	0.555239	4910.144531
5854.427095	1.079722	0.615510	482.635590
5854.427993	1.541067	0.615510	1866.513672
5854.428946	1.528561	0.615510	3323.231934
5854.429876	0.836169	0.615510	4100.869629
5854.430773	0.098727	0.615510	4189.427734
5854.431660	0.090117	0.615510	4269.361816
5854.432602	0.090304	0.615510	4354.428223
5854.433509	0.090125	0.615510	4436.171387
5854.434410	0.090154	0.615510	4517.399902
5854.435301	0.090179	0.615510	4597.750000
5854.436228	0.090227	0.615510	4681.390625
5854.437133	0.090198	0.615510	4763.019531
5854.438024	0.090135	0.615510	4843.330078
5854.438968	0.090187	0.615510	4928.466309
5855.429089	1.097227	0.589677	498.140900
5855.430009	1.542374	0.589677	1917.125122
5855.430918	1.528953	0.589677	3306.943115
5855.431812	0.902849	0.589677	4114.090332
5855.432749	0.100265	0.589677	4208.038574
5855.433653	0.090084	0.589677	4289.474609
5855.434579	0.090238	0.589677	4373.035156
5855.435470	0.090209	0.589677	4453.411133
5855.436412	0.090256	0.589677	4538.432617
5855.437317	0.090114	0.589677	4619.985352
5855.438209	0.090238	0.589677	4700.477539
5855.439147	0.090249	0.589677	4785.131348
5855.440069	0.090194	0.589677	4868.290527
5855.440976	0.090139	0.589677	4950.046875
5856.461773	1.070753	0.635261	471.131348
5856.462680	1.540591	0.635261	1868.447266
5856.463668	1.527162	0.635261	3377.283203
5856.464605	0.767388	0.635261	4096.325195
5856.465497	0.096625	0.635261	4182.514648
5856.466443	0.090128	0.635261	4267.775879
5856.467363	0.090187	0.635261	4350.747559
5856.468286	0.090275	0.635261	4434.071289
5856.469174	0.090165	0.635261	4514.137695
5856.470123	0.090212	0.635261	4599.749023
5856.471041	0.090194	0.635261	4682.547363
5856.471930	0.090253	0.635261	4762.782227
5856.472870	0.090253	0.635261	4847.619629
5856.473785	0.090271	0.635261	4930.217773
5857.466382	1.132522	0.636776	560.598389
5857.467286	1.543389	0.636776	1955.821777
5857.468216	1.527301	0.636776	3376.211670
5857.469115	0.815248	0.636776	4109.119629
5857.470055	0.096368	0.636776	4199.706055
5857.470977	0.090172	0.636776	4282.844727
5857.471872	0.090223	0.636776	4363.594727
5857.472808	0.090209	0.636776	4448.030273
5857.473719	0.090154	0.636776	4530.160156
5857.474641	0.090212	0.636776	4613.335937
5857.475529	0.090194	0.636776	4693.428223
5857.476495	0.090165	0.636776	4780.527344
5857.477391	0.090227	0.636776	4861.370605
5857.478310	0.090135	0.636776	4944.205078
5858.495445	1.073870	0.631640	473.576477
5858.496344	1.540818	0.631640	1858.771729
5858.497324	1.527334	0.631640	3355.559082
5858.498256	0.796509	0.631640	4097.905273
5858.499146	0.097614	0.631640	4184.781250
5858.500067	0.090179	0.631640	4267.836426
5858.501004	0.090135	0.631640	4352.293457
5858.501918	0.090201	0.631640	4434.737305
5858.502806	0.090231	0.631640	4514.862305
5858.503748	0.090253	0.631640	4599.880371
5858.504681	0.090322	0.631640	4684.150879
5858.505588	0.090231	0.631640	4765.990234
5858.506484	0.090223	0.631640	4846.830566
5858.507424	0.090216	0.631640	4931.633789
5859.510265	1.127552	0.631716	550.245544
5859.511216	1.543986	0.631716	2018.575928
5859.512143	1.525576	0.631716	3432.785156
5859.513041	0.769684	0.631716	4123.961426
5859.513993	0.095273	0.631716	4214.661621
5859.514932	0.090198	0.631716	4299.357422
5859.515823	0.090198	0.631716	4379.723633
5859.516747	0.090146	0.631716	4463.019043
5859.517685	0.090205	0.631716	4547.631348
5859.518608	0.090209	0.631716	4630.894043
5859.519502	0.090264	0.631716	4711.589844
5859.520446	0.090308	0.631716	4796.840332
5859.521387	0.090205	0.631716	4881.723145
5859.522286	0.090315	0.631716	4962.916504
5860.525029	1.095758	0.593097	501.857208
5860.525931	1.542056	0.593097	1892.791382
5860.526870	1.527887	0.593097	3327.477295
5860.527819	0.797073	0.593097	4083.899414
5860.528741	0.096361	0.593097	4172.744141
5860.529628	0.090157	0.593097	4252.713867
5860.530577	0.090220	0.593097	4338.332520
5860.531513	0.090168	0.593097	4422.729980
5860.532411	0.090253	0.593097	4503.776855
5860.533339	0.090212	0.593097	4587.494141
5860.534262	0.090205	0.593097	4670.753418
5860.535194	0.090146	0.593097	4754.770020
5860.536099	0.090190	0.593097	4836.392578
5860.537017	0.090256	0.593097	4919.248047
5861.554664	1.080670	0.584428	496.027588
5861.555559	1.541646	0.584428	1875.800293
5861.556461	1.529696	0.584428	3255.585937
5861.557421	0.858512	0.584428	4079.757324
5861.558351	0.098112	0.584428	4171.000977
5861.559248	0.090157	0.584428	4251.872070
5861.560163	0.090088	0.584428	4334.302734
5861.561081	0.090117	0.584428	4417.030273
5861.562017	0.090194	0.584428	4501.452148
5861.562913	0.090275	0.584428	4582.338379
5861.563842	0.090146	0.584428	4666.084473
5861.564779	0.090179	0.584428	4750.582520
5861.565700	0.090081	0.584428	4833.546875
5861.566588	0.090176	0.584428	4913.623047
5862.554603	1.080458	0.562699	502.412811
5862.555516	1.542642	0.562699	1910.844604
5862.556414	1.528821	0.562699	3283.725586
5862.557380	0.816687	0.562699	4072.645264
5862.558319	0.096757	0.562699	4163.499512
5862.559214	0.090183	0.562699	4244.213379
5862.560131	0.090212	0.562699	4326.937988
5862.561066	0.090194	0.562699	4411.269531
5862.561976	0.090234	0.562699	4493.382812
5862.562861	0.090172	0.562699	4573.185059
5862.563792	0.090223	0.562699	4657.183105
5862.564726	0.090234	0.562699	4741.461914
5862.565642	0.090249	0.562699	4824.129883
5862.566536	0.090223	0.562699	4904.789551
5863.591391	1.080927	0.576359	482.093231
5863.592309	1.541492	0.576359	1897.182617
5863.593204	1.529575	0.576359	3266.152344
5863.594164	0.856047	0.576359	4087.957764
5863.595072	0.098646	0.576359	4177.528320
5863.595975	0.090157	0.576359	4258.940430
5863.596865	0.090220	0.576359	4339.235840
5863.597812	0.090286	0.576359	4424.736328
5863.598707	0.090223	0.576359	4505.486328
5863.599613	0.090209	0.576359	4587.215332
5863.600502	0.090293	0.576359	4667.485840
5863.601440	0.090278	0.576359	4752.166992
5863.602346	0.090289	0.576359	4833.969238
5863.603248	0.090227	0.576359	4915.354004
5864.590283	1.070028	0.593975	469.742310
5864.591237	1.543784	0.593975	1942.512329
5864.592158	1.528458	0.593975	3350.222412
5864.593070	0.835986	0.593975	4112.642090
5864.594005	0.099188	0.593975	4205.383301
5864.594901	0.090271	0.593975	4286.266113
5864.595810	0.090194	0.593975	4368.252441
5864.596704	0.090330	0.593975	4449.007324
5864.597647	0.090260	0.593975	4534.122559
5864.598541	0.090205	0.593975	4614.766113
5864.599445	0.090176	0.593975	4696.285156
5864.600337	0.090223	0.593975	4776.764648
5864.601282	0.090333	0.593975	4862.129395
5864.602185	0.090201	0.593975	4943.581055
5865.622482	1.070050	0.594732	472.962097
5865.623382	1.540697	0.594732	1859.589600
5865.624346	1.528868	0.594732	3333.418701
5865.625266	0.836576	0.594732	4103.068359
5865.626167	0.099027	0.594732	4192.291992
5865.627056	0.090205	0.594732	4272.484375
5865.628015	0.090278	0.594732	4359.061523
5865.628914	0.090176	0.594732	4440.129395
5865.629813	0.090256	0.594732	4521.270020
5865.630703	0.090209	0.594732	4601.555664
5865.631651	0.090205	0.594732	4687.070312
5865.632557	0.090245	0.594732	4768.832520
5865.633452	0.090209	0.594732	4849.569336
5865.634386	0.090322	0.594732	4933.930176
5866.630655	1.116475	0.645864	548.189026
5866.631561	1.543268	0.645864	1946.389648
5866.632466	1.528488	0.645864	3329.670898
5866.633364	0.877727	0.645864	4117.869629
5866.634319	0.101125	0.645864	4214.444336
5866.635219	0.090293	0.645864	4295.708008
5866.636121	0.090216	0.645864	4377.083008
5866.637014	0.090245	0.645864	4457.671875
5866.637948	0.090348	0.645864	4542.056641
5866.638854	0.090227	0.645864	4623.802246
5866.639756	0.090212	0.645864	4705.173828
5866.640642	0.090216	0.645864	4785.105469
5866.641597	0.090278	0.645864	4871.321289
5866.642496	0.090205	0.645864	4952.415527
5867.654142	1.085933	0.597435	529.935120
5867.655060	1.543433	0.597435	1946.806152
5867.655974	1.527678	0.597435	3343.104004
5867.656874	0.848873	0.597435	4107.089844
5867.657828	0.096870	0.597435	4199.503906
5867.658742	0.090165	0.597435	4281.914551
5867.659640	0.090278	0.597435	4362.984375
5867.660531	0.090216	0.597435	4443.366699
5867.661469	0.090333	0.597435	4528.099121
5867.662372	0.090234	0.597435	4609.580566
5867.663298	0.090231	0.597435	4693.134277
5867.664191	0.090238	0.597435	4773.716797
5867.665144	0.090330	0.597435	4859.800781
5867.666050	0.090209	0.597435	4941.529785
5868.672977	1.067688	0.643765	471.918091
5868.673873	1.540378	0.643765	1852.097168
5868.674817	1.529260	0.643765	3295.718750
5868.675736	0.866389	0.643765	4091.930420
5868.676662	0.098738	0.643765	4183.361816
5868.677549	0.090201	0.643765	4263.370605
5868.678509	0.090238	0.643765	4349.999023
5868.679415	0.090198	0.643765	4431.718262
5868.680302	0.090205	0.643765	4511.729980
5868.681254	0.090282	0.643765	4597.678223
5868.682167	0.090238	0.643765	4680.065430
5868.683083	0.090220	0.643765	4762.706543
5868.683970	0.090260	0.643765	4842.767090
5868.684905	0.090198	0.643765	4927.102051
5869.685215	1.092070	0.573966	492.523712
5869.686137	1.542429	0.573966	1914.643433
5869.687042	1.529220	0.573966	3298.587402
5869.687990	0.835540	0.573966	4090.678955
5869.688897	0.098405	0.573966	4179.931641
5869.689816	0.090205	0.573966	4262.830078
5869.690702	0.090216	0.573966	4342.761719
5869.691650	0.090253	0.573966	4428.321289
5869.692550	0.090253	0.573966	4509.548828
5869.693443	0.090256	0.573966	4590.147949
5869.694383	0.090282	0.573966	4675.013184
5869.695296	0.090227	0.573966	4757.390625
5869.696201	0.090264	0.573966	4839.079102
5869.697097	0.090187	0.573966	4919.886230
5870.714901	1.123202	0.600315	577.325745
5870.715811	1.543524	0.600315	1981.932617
5870.716736	1.526510	0.600315	3393.954346
5870.717633	0.800112	0.600315	4111.655273
5870.718573	0.095588	0.600315	4201.508301
5870.719499	0.090216	0.600315	4285.048340
5870.720392	0.090139	0.600315	4365.542480
5870.721310	0.090245	0.600315	4448.387695
5870.722230	0.090264	0.600315	4531.430176
5870.723157	0.090227	0.600315	4615.070801
5870.724048	0.090205	0.600315	4695.443359
5870.725000	0.090205	0.600315	4781.318359
5870.725908	0.090245	0.600315	4863.261230
5870.726825	0.090253	0.600315	4946.022949
5871.718906	1.080974	0.559078	512.381714
5871.719809	1.542213	0.559078	1905.000244
5871.720711	1.529165	0.559078	3284.307129
5871.721649	0.859193	0.559078	4090.230225
5871.722583	0.097961	0.559078	4181.726074
5871.723505	0.090150	0.559078	4264.844727
5871.724403	0.090216	0.559078	4345.858887
5871.725354	0.090253	0.559078	4431.688965
5871.726290	0.090161	0.559078	4516.079590
5871.727214	0.090260	0.559078	4599.479980
5871.728104	0.090300	0.559078	4679.847168
5871.729043	0.090201	0.559078	4764.546387
5871.729970	0.090198	0.559078	4848.159668
5871.730887	0.090227	0.559078	4930.897949
5872.752072	1.062235	0.588597	465.258972
5872.753014	1.542535	0.588597	1918.327393
5872.753975	1.526821	0.588597	3385.602539
5872.754908	0.762762	0.588597	4097.259766
5872.755799	0.096621	0.588597	4183.349121
5872.756742	0.090205	0.588597	4268.412598
5872.757683	0.090187	0.588597	4353.278320
5872.758579	0.090220	0.588597	4434.115234
5872.759509	0.090216	0.588597	4518.016113
5872.760443	0.090194	0.588597	4602.257324
5872.761347	0.090348	0.588597	4683.931641
5872.762244	0.090172	0.588597	4764.815918
5872.763181	0.090293	0.588597	4849.420410
5872.764119	0.090249	0.588597	4934.074219
5873.753564	1.079447	0.563920	483.592285
5873.754467	1.541400	0.563920	1875.476685
5873.755377	1.529692	0.563920	3267.496826
5873.756304	0.897213	0.563920	4099.213379
5873.757223	0.099987	0.563920	4191.101074
5873.758134	0.090139	0.563920	4273.217773
5873.759035	0.090238	0.563920	4354.522461
5873.759974	0.090344	0.563920	4439.355469
5873.760875	0.090216	0.563920	4520.640137
5873.761775	0.090267	0.563920	4601.880859
5873.762665	0.090242	0.563920	4682.195801
5873.763596	0.090286	0.563920	4766.251953
5873.764500	0.090260	0.563920	4847.847168
5873.765399	0.090216	0.563920	4928.951172
5874.787823	1.117357	0.602124	530.744629
5874.788734	1.543107	0.602124	1936.514771
5874.789630	1.529531	0.602124	3306.974609
5874.790584	0.836646	0.602124	4105.134277
5874.791492	0.097698	0.602124	4193.843750
5874.792416	0.090201	0.602124	4277.189941
5874.793308	0.090271	0.602124	4357.711914
5874.794260	0.090227	0.602124	4443.607910
5874.795158	0.090242	0.602124	4524.645020
5874.796076	0.090333	0.602124	4607.570801
5874.796965	0.090278	0.602124	4687.828125
5874.797920	0.090135	0.602124	4773.907715
5874.798828	0.090165	0.602124	4855.777344
5874.799719	0.090260	0.602124	4936.199219
5875.788753	1.074408	0.592561	478.111542
5875.789694	1.542744	0.592561	1929.833740
5875.790589	1.528337	0.592561	3297.695801
5875.791554	0.808242	0.592561	4077.649414
5875.792478	0.096760	0.592561	4167.055664
5875.793365	0.090139	0.592561	4247.009277
5875.794321	0.090234	0.592561	4333.273437
5875.795214	0.090238	0.592561	4413.855957
5875.796122	0.090231	0.592561	4495.785645
5875.797020	0.090286	0.592561	4576.862305
5875.797966	0.090253	0.592561	4662.241211
5875.798866	0.090198	0.592561	4743.418945
5875.799790	0.090187	0.592561	4826.751465
5875.800680	0.090179	0.592561	4907.011230
5876.823510	1.068915	0.621484	469.253571
5876.824411	1.540499	0.621484	1857.243408
5876.825370	1.528323	0.621484	3322.904785
5876.826304	0.826099	0.621484	4094.480957
5876.827202	0.098243	0.621484	4182.703613
5876.828120	0.090198	0.621484	4265.505371
5876.829061	0.090289	0.621484	4350.467773
5876.829983	0.090212	0.621484	4433.643555
5876.830876	0.090201	0.621484	4514.193359
5876.831825	0.090234	0.621484	4599.825684
5876.832759	0.090209	0.621484	4684.080566
5876.833651	0.090264	0.621484	4764.595703
5876.834570	0.090242	0.621484	4847.527832
5876.835507	0.090242	0.621484	4932.084473
5877.824498	1.082421	0.624409	516.314697
5877.825443	1.542821	0.624409	1974.280640
5877.826367	1.525953	0.624409	3384.261719
5877.827269	0.805496	0.624409	4110.818848
5877.828231	0.096101	0.624409	4203.268066
5877.829148	0.090146	0.624409	4285.932617
5877.830062	0.090256	0.624409	4368.426758
5877.830957	0.090227	0.624409	4449.180176
5877.831896	0.090168	0.624409	4533.848145
5877.832836	0.090165	0.624409	4618.603027
5877.833754	0.090267	0.624409	4701.468262
5877.834658	0.090234	0.624409	4783.040039
5877.835614	0.090227	0.624409	4869.296875
5877.836547	0.090286	0.624409	4953.533203
5878.858185	1.066820	0.636470	466.200348
5878.859140	1.541906	0.636470	1938.720093
5878.860073	1.526971	0.636470	3363.384521
5878.860976	0.830830	0.636470	4113.624023
5878.861903	0.098679	0.636470	4205.099609
5878.862841	0.090168	0.636470	4289.677734
5878.863755	0.090205	0.636470	4372.125000
5878.864645	0.090315	0.636470	4452.505371
5878.865587	0.090209	0.636470	4537.481934
5878.866521	0.090231	0.636470	4621.757324
5878.867419	0.090231	0.636470	4702.784668
5878.868349	0.090231	0.636470	4786.699219
5878.869266	0.090260	0.636470	4869.467773
5878.870196	0.090249	0.636470	4953.399414
5879.860682	1.061719	0.641795	462.909393
5879.861628	1.539910	0.641795	1919.663940
5879.862581	1.526931	0.641795	3374.829102
5879.863504	0.789185	0.641795	4103.246582
5879.864403	0.097079	0.641795	4190.520508
5879.865342	0.090242	0.641795	4275.257324
5879.866273	0.090297	0.641795	4359.323242
5879.867212	0.090220	0.641795	4444.039551
5879.868113	0.090256	0.641795	4525.360352
5879.869051	0.090289	0.641795	4610.051758
5879.869950	0.090406	0.641795	4691.327148
5879.870858	0.090370	0.641795	4773.382812
5879.871749	0.090352	0.641795	4853.886230
5879.872689	0.090330	0.641795	4938.795898
5880.894413	1.063693	0.638681	465.897339
5880.895308	1.539976	0.638681	1844.175537
5880.896278	1.528063	0.638681	3326.396484
5880.897208	0.832061	0.638681	4100.212891
5880.898102	0.098987	0.638681	4188.707031
5880.899035	0.090330	0.638681	4272.984375
5880.899941	0.090271	0.638681	4354.770020
5880.900842	0.090256	0.638681	4436.090820
5880.901739	0.090253	0.638681	4517.047363
5880.902671	0.090234	0.638681	4601.145996
5880.903583	0.090242	0.638681	4683.446289
5880.904493	0.090227	0.638681	4765.552734
5880.905380	0.090286	0.638681	4845.636230
5880.906317	0.090381	0.638681	4930.323242
5881.896415	1.082988	0.651628	484.095795
5881.897343	1.541774	0.651628	1914.861816
5881.898246	1.529414	0.651628	3295.922852
5881.899216	0.818394	0.651628	4089.764648
5881.900109	0.098196	0.651628	4177.453613
5881.901011	0.090220	0.651628	4258.832031
5881.901902	0.090267	0.651628	4339.260254
5881.902834	0.090293	0.651628	4423.413086
5881.903747	0.090282	0.651628	4505.840332
5881.904649	0.090176	0.651628	4587.178711
5881.905539	0.090311	0.651628	4667.555664
5881.906487	0.090366	0.651628	4753.222656
5881.907395	0.090271	0.651628	4835.188477
5881.908301	0.090319	0.651628	4917.017090
5882.929101	1.067292	0.633581	471.743256
5882.930058	1.543422	0.633581	1948.797729
5882.930975	1.528026	0.633581	3349.997559
5882.931911	0.801332	0.633581	4100.043945
5882.932798	0.098218	0.633581	4187.163086
5882.933766	0.090183	0.633581	4274.460449
5882.934656	0.090286	0.633581	4354.814453
5882.935544	0.090245	0.633581	4434.952148
5882.936469	0.090267	0.633581	4518.449219
5882.937377	0.090146	0.633581	4600.302246
5882.938299	0.090194	0.633581	4683.461426
5882.939200	0.090297	0.633581	4764.818848
5882.940132	0.090253	0.633581	4848.934570
5882.941040	0.090194	0.633581	4930.830566
5883.931621	1.081692	0.640369	502.986725
5883.932527	1.542495	0.640369	1900.487183
5883.933477	1.528535	0.640369	3352.595703
5883.934400	0.818932	0.640369	4108.469727
5883.935315	0.097061	0.640369	4197.280273
5883.936210	0.090216	0.640369	4278.023437
5883.937162	0.090168	0.640369	4363.863770
5883.938083	0.090168	0.640369	4446.908691
5883.939003	0.090282	0.640369	4529.968262
5883.939895	0.090234	0.640369	4610.457520
5883.940851	0.090260	0.640369	4696.746094
5883.941755	0.090231	0.640369	4778.314453
5883.942649	0.090366	0.640369	4859.102051
5883.943585	0.090194	0.640369	4943.523926
5884.965345	1.074324	0.625476	483.445709
5884.966249	1.541374	0.625476	1876.848145
5884.967192	1.528641	0.625476	3318.356934
5884.968136	0.817288	0.625476	4089.876465
5884.969053	0.096863	0.625476	4178.699707
5884.969953	0.090121	0.625476	4259.808594
5884.970899	0.090249	0.625476	4345.184082
5884.971830	0.090154	0.625476	4429.117187
5884.972729	0.090187	0.625476	4510.195312
5884.973649	0.090157	0.625476	4593.140137
5884.974567	0.090132	0.625476	4675.881348
5884.975500	0.090249	0.625476	4760.083496
5884.976425	0.090253	0.625476	4843.567383
5884.977315	0.090161	0.625476	4923.811035
5885.966797	1.082443	0.625887	477.357208
5885.967770	1.543509	0.625887	1979.191895
5885.968700	1.526949	0.625887	3399.254883
5885.969601	0.805045	0.625887	4124.600586
5885.970538	0.097148	0.625887	4215.628906
5885.971480	0.090150	0.625887	4300.550293
5885.972399	0.090245	0.625887	4383.485840
5885.973299	0.090194	0.625887	4464.660645
5885.974219	0.090190	0.625887	4547.635742
5885.975159	0.090256	0.625887	4632.476562
5885.976074	0.090234	0.625887	4715.041016
5885.976964	0.090289	0.625887	4795.398437
5885.977909	0.090231	0.625887	4880.666504
5885.978841	0.090260	0.625887	4964.789062
5887.000013	1.061631	0.622463	459.686157
5887.000955	1.540426	0.622463	1910.767456
5887.001910	1.527158	0.622463	3369.203613
5887.002836	0.802830	0.622463	4112.624023
5887.003726	0.097657	0.622463	4199.539062
5887.004663	0.090161	0.622463	4284.020020
5887.005585	0.090205	0.622463	4367.188965
5887.006519	0.090176	0.622463	4451.413086
5887.007417	0.090300	0.622463	4532.502930
5887.008356	0.090341	0.622463	4617.332520
5887.009257	0.090330	0.622463	4698.719238
5887.010169	0.090198	0.622463	4780.979492
5887.011063	0.090260	0.622463	4861.671875
5887.012000	0.090275	0.622463	4946.259277
5888.003034	1.078484	0.614435	478.846802
5888.003938	1.541246	0.614435	1872.133423
5888.004886	1.528019	0.614435	3320.695312
5888.005827	0.818646	0.614435	4091.041504
5888.006725	0.098046	0.614435	4179.086426
5888.007650	0.090245	0.614435	4262.563477
5888.008591	0.090275	0.614435	4347.511719
5888.009504	0.090278	0.614435	4429.936035
5888.010396	0.090271	0.614435	4510.458008
5888.011345	0.090245	0.614435	4596.101074
5888.012276	0.090220	0.614435	4680.095703
5888.013184	0.090293	0.614435	4762.081543
5888.014085	0.090205	0.614435	4843.356445
5888.015019	0.090282	0.614435	4927.679687
5889.034697	1.079330	0.628115	475.984467
5889.035667	1.543619	0.628115	1973.295288
5889.036594	1.526909	0.628115	3388.740234
5889.037499	0.808396	0.628115	4120.338867
5889.038446	0.097075	0.628115	4212.269043
5889.039351	0.090212	0.628115	4293.911133
5889.040257	0.090253	0.628115	4375.680176
5889.041147	0.090319	0.628115	4456.063965
5889.042104	0.090363	0.628115	4542.541016
5889.043009	0.090293	0.628115	4624.256348
5889.043905	0.090337	0.628115	4705.198242
5889.044825	0.090308	0.628115	4788.281250
5889.045744	0.090341	0.628115	4871.304199
5889.046654	0.090242	0.628115	4953.424316
5890.042326	1.082736	0.597314	480.734619
5890.043249	1.542162	0.597314	1904.150024
5890.044152	1.529572	0.597314	3285.353027
5890.045117	0.826274	0.597314	4082.708008
5890.046016	0.098877	0.597314	4171.598633
5890.046913	0.090242	0.597314	4252.545410
5890.047797	0.090198	0.597314	4332.280273
5890.048730	0.090428	0.597314	4416.649902
5890.049636	0.090220	0.597314	4498.389160
5890.050535	0.090278	0.597314	4579.549316
5890.051478	0.090311	0.597314	4664.712891
5890.052388	0.090388	0.597314	4746.966309
5890.053286	0.090267	0.597314	4828.026367
5890.054175	0.090300	0.597314	4908.303223
5891.068880	1.074767	0.638387	470.747833
5891.069800	1.541411	0.638387	1888.846069
5891.070707	1.529451	0.638387	3276.057861
5891.071649	0.872728	0.638387	4098.167969
5891.072544	0.100953	0.638387	4188.520996
5891.073453	0.090172	0.638387	4270.487305
5891.074350	0.090223	0.638387	4351.417480
5891.075295	0.090322	0.638387	4436.771973
5891.076199	0.090253	0.638387	4518.360352
5891.077094	0.090227	0.638387	4599.113770
5891.077982	0.090194	0.638387	4679.206055
5891.078914	0.090333	0.638387	4763.396484
5891.079823	0.090205	0.638387	4845.393066
5891.080724	0.090249	0.638387	4926.707520
5892.086753	1.086779	0.603458	492.310669
5892.087651	1.541594	0.603458	1876.662354
5892.088611	1.528323	0.603458	3343.852051
5892.089539	0.823356	0.603458	4107.926270
5892.090429	0.098591	0.603458	4195.672363
5892.091317	0.090114	0.603458	4275.693359
5892.092250	0.090271	0.603458	4359.916016
5892.093160	0.090245	0.603458	4442.039062
5892.094080	0.090315	0.603458	4525.128906
5892.094973	0.090168	0.603458	4605.649414
5892.095932	0.090220	0.603458	4692.169922
5892.096831	0.090172	0.603458	4773.234863
5892.097754	0.090260	0.603458	4856.544922
5892.098656	0.090267	0.603458	4937.965820
5893.101006	1.076360	0.664132	477.903778
5893.101964	1.540591	0.664132	1953.789917
5893.102894	1.527012	0.664132	3373.910889
5893.103802	0.814603	0.664132	4113.570801
5893.104690	0.098394	0.664132	4200.944336
5893.105621	0.090220	0.664132	4284.938965
5893.106524	0.090300	0.664132	4366.479980
5893.107444	0.090271	0.664132	4449.529297
5893.108342	0.090121	0.664132	4530.458008
5893.109311	0.090337	0.664132	4617.994629
5893.110211	0.090212	0.664132	4699.185547
5893.111105	0.090212	0.664132	4779.835449
5893.112036	0.090264	0.664132	4863.871094
5893.112947	0.090260	0.664132	4946.098145
5894.128587	1.069735	0.621279	470.683411
5894.129548	1.543667	0.621279	1954.147461
5894.130481	1.526733	0.621279	3378.589844
5894.131417	0.770475	0.621279	4099.754395
5894.132325	0.096768	0.621279	4187.619141
5894.133263	0.090154	0.621279	4272.183594
5894.134183	0.090231	0.621279	4355.195801
5894.135073	0.090179	0.621279	4435.455566
5894.136012	0.090319	0.621279	4520.264648
5894.136927	0.090286	0.621279	4602.875977
5894.137845	0.090264	0.621279	4685.737793
5894.138736	0.090282	0.621279	4766.179199
5894.139688	0.090216	0.621279	4852.064941
5894.140615	0.090190	0.621279	4935.671387
5895.133689	1.097249	0.675166	522.290283
5895.134605	1.542905	0.675166	1935.591431
5895.135500	1.528887	0.675166	3303.944824
5895.136477	0.786482	0.675166	4072.337646
5895.137423	0.095870	0.675166	4163.031250
5895.138315	0.090227	0.675166	4243.513672
5895.139244	0.090227	0.675166	4327.334473
5895.140179	0.090256	0.675166	4411.724121
5895.141102	0.090253	0.675166	4495.027344
5895.142001	0.090201	0.675166	4576.118652
5895.142953	0.090183	0.675166	4661.973145
5895.143878	0.090183	0.675166	4745.392578
5895.144790	0.090278	0.675166	4827.726562
5895.145685	0.090253	0.675166	4908.502930
5896.165323	1.066747	0.627813	468.301849
5896.166264	1.540272	0.627813	1917.697998
5896.167214	1.527576	0.627813	3368.895020
5896.168140	0.795388	0.627813	4105.424316
5896.169028	0.097793	0.627813	4192.264648
5896.169970	0.090143	0.627813	4277.179199
5896.170902	0.090256	0.627813	4361.298340
5896.171819	0.090220	0.627813	4444.029785
5896.172708	0.090132	0.627813	4524.157227
5896.173645	0.090194	0.627813	4608.668945
5896.174586	0.090234	0.627813	4693.579590
5896.175489	0.090216	0.627813	4775.044922
5896.176407	0.090304	0.627813	4857.943848
5896.177345	0.090220	0.627813	4942.569824
5897.166815	1.087624	0.651894	487.255737
5897.167778	1.543773	0.651894	1973.909302
5897.168702	1.526722	0.651894	3384.600586
5897.169603	0.801185	0.651894	4106.468750
5897.170550	0.095797	0.651894	4197.188477
5897.171487	0.090146	0.651894	4281.655762
5897.172387	0.090234	0.651894	4362.866699
5897.173311	0.090190	0.651894	4446.202637
5897.174247	0.090168	0.651894	4530.600098
5897.175163	0.090231	0.651894	4613.251465
5897.176051	0.090205	0.651894	4693.353516
5897.177009	0.090267	0.651894	4779.829590
5897.177936	0.090231	0.651894	4863.473633
5897.178835	0.090194	0.651894	4944.558105
5898.198513	1.093605	0.623502	517.275085
5898.199416	1.542642	0.623502	1910.280273
5898.200382	1.527990	0.623502	3386.318115
5898.201294	0.790474	0.623502	4107.229980
5898.202203	0.097013	0.623502	4195.414551
5898.203099	0.090267	0.623502	4276.293945
5898.204044	0.090271	0.623502	4361.600098
5898.204952	0.090282	0.623502	4443.576172
5898.205855	0.090212	0.623502	4525.038086
5898.206742	0.090286	0.623502	4605.121582
5898.207696	0.090275	0.623502	4691.243652
5898.208594	0.090260	0.623502	4772.297363
5898.209491	0.090282	0.623502	4853.280273
5898.210376	0.090264	0.623502	4933.163574
5899.204567	1.081014	0.611518	478.889374
5899.205483	1.541528	0.611518	1890.929199
5899.206391	1.529736	0.611518	3279.929687
5899.207357	0.843706	0.611518	4094.949707
5899.208260	0.098632	0.611518	4184.014160
5899.209164	0.090194	0.611518	4265.549805
5899.210054	0.090242	0.611518	4345.864746
5899.211000	0.090374	0.611518	4431.357910
5899.211901	0.090216	0.611518	4512.642578
5899.212804	0.090198	0.611518	4594.091309
5899.213699	0.090267	0.611518	4674.880371
5899.214623	0.090341	0.611518	4758.354980
5899.215533	0.090205	0.611518	4840.441406
5899.216429	0.090187	0.611518	4921.248535
5900.231201	1.164133	0.615816	613.498230
5900.232117	1.544689	0.615816	2028.433105
5900.233023	1.526979	0.615816	3411.875977
5900.233923	0.782285	0.615816	4115.932617
5900.234872	0.095057	0.615816	4206.142090
5900.235772	0.090205	0.615816	4287.326660
5900.236663	0.090242	0.615816	4367.731934
5900.237593	0.090330	0.615816	4451.738281
5900.238498	0.090267	0.615816	4533.430176
5900.239408	0.090231	0.615816	4615.540039
5900.240301	0.090227	0.615816	4696.112793
5900.241242	0.090377	0.615816	4781.157715
5900.242161	0.090223	0.615816	4864.073242
5900.243057	0.090260	0.615816	4944.946289
5901.246922	1.072017	0.600750	471.687317
5901.247887	1.540825	0.600750	1958.583496
5901.248823	1.527184	0.600750	3388.027344
5901.249743	0.786669	0.600750	4111.762695
5901.250634	0.097335	0.600750	4198.488281
5901.251582	0.090216	0.600750	4284.013184
5901.252486	0.090275	0.600750	4365.621582
5901.253414	0.090286	0.600750	4449.406738
5901.254299	0.090264	0.600750	4529.290039
5901.255234	0.090322	0.600750	4613.741211
5901.256134	0.090154	0.600750	4694.879883
5901.257025	0.090289	0.600750	4775.327637
5901.257964	0.090311	0.600750	4860.129883
5901.258871	0.090161	0.600750	4941.906250
5902.264259	1.058961	0.627607	457.471222
5902.265226	1.542872	0.627607	1949.428711
5902.266139	1.528023	0.627607	3344.513184
5902.267073	0.809777	0.627607	4100.844727
5902.267957	0.098551	0.627607	4187.963867
5902.268907	0.090139	0.627607	4273.596191
5902.269834	0.090209	0.627607	4357.219727
5902.270726	0.090253	0.627607	4437.725098
5902.271680	0.090275	0.627607	4523.847168
5902.272582	0.090275	0.627607	4605.274902
5902.273504	0.090209	0.627607	4688.447266
5902.274401	0.090227	0.627607	4769.380859
5902.275339	0.090249	0.627607	4854.034668
5902.276261	0.090267	0.627607	4937.261230
5903.290827	1.064363	0.619297	465.126526
5903.291727	1.540573	0.619297	1851.641846
5903.292684	1.528993	0.619297	3314.888184
5903.293639	0.809828	0.619297	4088.273926
5903.294556	0.096493	0.619297	4176.757812
5903.295461	0.090172	0.619297	4258.363770
5903.296388	0.090183	0.619297	4341.963379
5903.297324	0.090227	0.619297	4426.416016
5903.298217	0.090300	0.619297	4507.054199
5903.299146	0.090161	0.619297	4590.813965
5903.300080	0.090179	0.619297	4675.041504
5903.300996	0.090319	0.619297	4757.773437
5903.301889	0.090128	0.619297	4838.257812
5903.302825	0.090260	0.619297	4922.741211
5904.296927	1.081362	0.654553	487.694427
5904.297831	1.541997	0.654553	1881.659790
5904.298759	1.529725	0.654553	3301.244873
5904.299707	0.839110	0.654553	4096.721191
5904.300616	0.097899	0.654553	4185.711426
5904.301509	0.090271	0.654553	4266.323242
5904.302452	0.090201	0.654553	4351.383301
5904.303374	0.090198	0.654553	4434.545410
5904.304312	0.090256	0.654553	4519.206055
5904.305205	0.090194	0.654553	4599.749512
5904.306123	0.090209	0.654553	4682.561035
5904.307060	0.090223	0.654553	4767.100586
5904.307974	0.090234	0.654553	4849.574707
5904.308863	0.090234	0.654553	4929.792969
5905.330138	1.085061	0.628437	487.192413
5905.331052	1.542605	0.628437	1897.133301
5905.331959	1.530143	0.628437	3284.972656
5905.332857	0.918083	0.628437	4109.411621
5905.333812	0.099430	0.628437	4204.367187
5905.334717	0.090278	0.628437	4286.068848
5905.335605	0.090326	0.628437	4366.278320
5905.336524	0.090256	0.628437	4449.224121
5905.337443	0.090319	0.628437	4532.227051
5905.338352	0.090260	0.628437	4614.273437
5905.339250	0.090385	0.628437	4695.438965
5905.340184	0.090322	0.628437	4779.799805
5905.341085	0.090311	0.628437	4861.170410
5905.341980	0.090249	0.628437	4941.943359
5906.331613	1.095311	0.651918	498.366638
5906.332516	1.541873	0.651918	1890.677734
5906.333463	1.528704	0.651918	3338.359863
5906.334386	0.838114	0.651918	4111.938965
5906.335288	0.098793	0.651918	4201.049805
5906.336178	0.090223	0.651918	4281.348633
5906.337127	0.090337	0.651918	4367.078125
5906.338033	0.090157	0.651918	4448.760742
5906.338928	0.090249	0.651918	4529.533691
5906.339859	0.090278	0.651918	4613.583008
5906.340763	0.090355	0.651918	4695.264160
5906.341661	0.090190	0.651918	4776.255371
5906.342548	0.090275	0.651918	4856.329102
5906.343508	0.090333	0.651918	4943.048828
5907.365837	1.069735	0.620119	472.822906
5907.366806	1.544249	0.620119	1969.200439
5907.367718	1.527579	0.620119	3362.353027
5907.368638	0.815911	0.620119	4112.990723
5907.369525	0.098719	0.620119	4200.554687
5907.370473	0.090293	0.620119	4286.152344
5907.371382	0.090150	0.620119	4368.098633
5907.372269	0.090242	0.620119	4448.143066
5907.373198	0.090326	0.620119	4532.055664
5907.374102	0.090385	0.620119	4613.763184
5907.375006	0.090231	0.620119	4695.331543
5907.375897	0.090253	0.620119	4775.746582
5907.376832	0.090341	0.620119	4860.214844
5907.377731	0.090355	0.620119	4941.444336
5908.366820	1.094121	0.629775	495.636871
5908.367747	1.542755	0.629775	1925.770874
5908.368648	1.529740	0.629775	3304.066650
5908.369593	0.854623	0.629775	4111.685059
5908.370490	0.098672	0.629775	4200.193848
5908.371402	0.090168	0.629775	4282.427246
5908.372303	0.090238	0.629775	4363.731934
5908.373236	0.090282	0.629775	4447.964844
5908.374140	0.090256	0.629775	4529.556641
5908.375045	0.090201	0.629775	4611.188965
5908.375934	0.090201	0.629775	4691.377930
5908.376877	0.090300	0.629775	4776.531250
5908.377782	0.090161	0.629775	4858.126953
5908.378678	0.090238	0.629775	4938.980469
5909.400070	1.102372	0.618395	548.981140
5909.401000	1.544150	0.618395	1985.041016
5909.401903	1.527147	0.618395	3364.054932
5909.402804	0.823517	0.618395	4106.043457
5909.403746	0.095991	0.618395	4196.467285
5909.404661	0.090135	0.618395	4278.941406
5909.405561	0.090201	0.618395	4360.122559
5909.406452	0.090231	0.618395	4440.518066
5909.407384	0.090289	0.618395	4524.667480
5909.408285	0.090238	0.618395	4605.972168
5909.409174	0.090146	0.618395	4686.112305
5909.410130	0.090253	0.618395	4772.394043
5909.411038	0.090205	0.618395	4854.300293
5909.411937	0.090227	0.618395	4935.414551
5910.403017	1.064626	0.610660	465.241760
5910.403965	1.543279	0.610660	1928.270020
5910.404879	1.528718	0.610660	3325.518555
5910.405807	0.837528	0.610660	4102.744629
5910.406694	0.099646	0.610660	4191.130859
5910.407659	0.090157	0.610660	4278.132812
5910.408566	0.090190	0.610660	4359.935547
5910.409455	0.090201	0.610660	4440.124512
5910.410400	0.090223	0.610660	4525.385742
5910.411317	0.090209	0.610660	4608.106934
5910.412234	0.090209	0.610660	4690.828125
5910.413123	0.090220	0.610660	4771.033691
5910.414058	0.090245	0.610660	4855.413086
5910.414968	0.090223	0.610660	4937.516602
5911.434238	1.129600	0.608404	554.633362
5911.435154	1.543704	0.608404	1968.666016
5911.436087	1.526825	0.608404	3393.193848
5911.436991	0.798146	0.608404	4114.717773
5911.437956	0.094951	0.608404	4206.345703
5911.438871	0.090106	0.608404	4288.792969
5911.439762	0.090187	0.608404	4369.149414
5911.440713	0.090242	0.608404	4454.969238
5911.441628	0.090231	0.608404	4537.530273
5911.442547	0.090286	0.608404	4620.502930
5911.443446	0.090297	0.608404	4701.679687
5911.444371	0.090143	0.608404	4785.062012
5911.445298	0.090194	0.608404	4868.671875
5911.446215	0.090249	0.608404	4951.430176
5912.439753	1.063532	0.599679	464.763275
5912.440719	1.541433	0.599679	1953.787720
5912.441629	1.527883	0.599679	3344.161621
5912.442552	0.823268	0.599679	4104.038086
5912.443444	0.098719	0.599679	4192.095703
5912.444406	0.090157	0.599679	4278.827148
5912.445331	0.090183	0.599679	4362.246582
5912.446254	0.090168	0.599679	4445.472168
5912.447141	0.090150	0.599679	4525.435547
5912.448088	0.090278	0.599679	4610.929199
5912.449016	0.090135	0.599679	4694.574707
5912.449927	0.090209	0.599679	4776.754883
5912.450820	0.090139	0.599679	4857.249023
5912.451753	0.090249	0.599679	4941.451172
5913.470433	1.090572	0.608392	491.848175
5913.471335	1.541646	0.608392	1882.412354
5913.472298	1.528162	0.608392	3354.031982
5913.473229	0.809590	0.608392	4107.760254
5913.474118	0.097888	0.608392	4194.782715
5913.475049	0.090201	0.608392	4278.760254
5913.475988	0.090260	0.608392	4363.514648
5913.476900	0.090286	0.608392	4445.854980
5913.477797	0.090256	0.608392	4526.814941
5913.478742	0.090234	0.608392	4612.086426
5913.479681	0.090275	0.608392	4696.854492
5913.480580	0.090275	0.608392	4778.011230
5913.481502	0.090198	0.608392	4861.173340
5913.482429	0.090256	0.608392	4944.840820
5914.475992	1.098538	0.596919	498.736053
5914.476928	1.543590	0.596919	1943.536377
5914.477830	1.528455	0.596919	3322.202393
5914.478790	0.794260	0.596919	4084.692139
5914.479735	0.095925	0.596919	4175.341309
5914.480631	0.090205	0.596919	4256.165039
5914.481553	0.090253	0.596919	4339.377930
5914.482486	0.090146	0.596919	4423.484375
5914.483406	0.090212	0.596919	4506.479980
5914.484294	0.090168	0.596919	4586.549805
5914.485245	0.090264	0.596919	4672.390625
5914.486179	0.090198	0.596919	4756.635254
5914.487078	0.090242	0.596919	4837.762695
5914.488003	0.090220	0.596919	4921.215820
5915.506653	1.084845	0.606386	487.095367
5915.507559	1.542103	0.606386	1884.240967
5915.508488	1.528857	0.606386	3304.549316
5915.509434	0.824806	0.606386	4084.815674
5915.510353	0.097343	0.606386	4174.273437
5915.511243	0.090055	0.606386	4254.422363
5915.512187	0.090179	0.606386	4339.551758
5915.513126	0.090161	0.606386	4424.212891
5915.514044	0.090220	0.606386	4507.034668
5915.514932	0.090183	0.606386	4587.117187
5915.515868	0.090267	0.606386	4671.607422
5915.516765	0.090238	0.606386	4752.550781
5915.517669	0.090187	0.606386	4834.079590
5915.518560	0.090216	0.606386	4914.461914
5916.512263	1.105595	0.593363	550.586060
5916.513175	1.544191	0.593363	1958.887939
5916.514084	1.527854	0.593363	3347.707031
5916.514981	0.848057	0.593363	4108.414062
5916.515933	0.096423	0.593363	4200.208984
5916.516845	0.090205	0.593363	4282.476074
5916.517747	0.090337	0.593363	4363.959961
5916.518648	0.090216	0.593363	4445.244629
5916.519584	0.090308	0.593363	4529.772461
5916.520487	0.090289	0.593363	4611.303711
5916.521382	0.090223	0.593363	4692.053711
5916.522320	0.090300	0.593363	4776.755371
5916.523219	0.090256	0.593363	4857.895996
5916.524114	0.090223	0.593363	4938.645996
5917.543393	1.085325	0.593705	490.566803
5917.544299	1.542217	0.593705	1887.815186
5917.545200	1.530853	0.593705	3267.114014
5917.546160	0.849144	0.593705	4082.292480
5917.547074	0.098807	0.593705	4172.602539
5917.547974	0.090135	0.593705	4253.724609
5917.548863	0.090238	0.593705	4333.946289
5917.549810	0.090238	0.593705	4419.401855
5917.550713	0.090201	0.593705	4500.853516
5917.551605	0.090161	0.593705	4581.277344
5917.552571	0.090264	0.593705	4668.472168
5917.553477	0.090187	0.593705	4750.181152
5917.554372	0.090249	0.593705	4830.954102
5917.555264	0.090216	0.593705	4911.426758
5918.548946	1.076459	0.579557	482.253479
5918.549909	1.544308	0.579557	1969.422119
5918.550813	1.528132	0.579557	3350.853760
5918.551749	0.808546	0.579557	4107.652832
5918.552640	0.098137	0.579557	4195.093262
5918.553584	0.090194	0.579557	4280.236328
5918.554485	0.090220	0.579557	4361.524414
5918.555376	0.090286	0.579557	4441.968750
5918.556315	0.090209	0.579557	4526.674805
5918.557228	0.090275	0.579557	4609.095703
5918.558146	0.090245	0.579557	4691.940918
5918.559036	0.090205	0.579557	4772.223633
5918.559986	0.090223	0.579557	4857.936035
5918.560891	0.090245	0.579557	4939.607910
5919.582661	1.066739	0.574647	467.231873
5919.583643	1.545260	0.574647	1984.677246
5919.584556	1.527371	0.574647	3379.166748
5919.585493	0.775704	0.574647	4106.001953
5919.586397	0.096929	0.574647	4193.625488
5919.587333	0.090212	0.574647	4278.064453
5919.588253	0.090194	0.574647	4361.042969
5919.589173	0.090187	0.574647	4444.014648
5919.590058	0.090220	0.574647	4523.858887
5919.590995	0.090165	0.574647	4608.343262
5919.591924	0.090234	0.574647	4692.170898
5919.592826	0.090271	0.574647	4773.595215
5919.593749	0.090249	0.574647	4856.895020
5919.594688	0.090245	0.574647	4941.635254
5920.585192	1.104976	0.575682	507.183777
5920.586096	1.542327	0.575682	1901.447021
5920.587035	1.527675	0.575682	3335.933594
5920.587999	0.772244	0.575682	4080.376465
5920.588919	0.095640	0.575682	4168.364746
5920.589811	0.090084	0.575682	4248.719727
5920.590760	0.090146	0.575682	4334.268555
5920.591693	0.090081	0.575682	4418.313477
5920.592591	0.090205	0.575682	4499.317871
5920.593514	0.090125	0.575682	4582.502930
5920.594452	0.090194	0.575682	4667.104980
5920.595391	0.090194	0.575682	4751.797363
5920.596283	0.090150	0.575682	4832.211426
5920.597207	0.090179	0.575682	4915.537109
5921.619917	1.076265	0.563408	475.708954
5921.620890	1.543345	0.563408	1977.383423
5921.621813	1.526924	0.563408	3386.733887
5921.622712	0.818763	0.563408	4122.802246
5921.623635	0.098240	0.563408	4213.477539
5921.624576	0.090172	0.563408	4298.329590
5921.625513	0.090139	0.563408	4382.790039
5921.626412	0.090216	0.563408	4463.894043
5921.627327	0.090139	0.563408	4546.371582
5921.628260	0.090223	0.563408	4630.549805
5921.629184	0.090135	0.563408	4713.834961
5921.630083	0.090205	0.563408	4794.929199
5921.631012	0.090242	0.563408	4878.763672
5921.631950	0.090205	0.563408	4963.375977
5922.622418	1.077675	0.570357	479.565155
5922.623316	1.540887	0.570357	1863.282104
5922.624273	1.527700	0.570357	3325.291016
5922.625238	0.768212	0.570357	4066.615234
5922.626164	0.095533	0.570357	4155.079102
5922.627052	0.090150	0.570357	4235.132324
5922.628002	0.090201	0.570357	4320.823730
5922.628943	0.090209	0.570357	4405.709961
5922.629834	0.090220	0.570357	4486.095703
5922.630756	0.090114	0.570357	4569.180176
5922.631691	0.090172	0.570357	4653.491211
5922.632617	0.090157	0.570357	4736.977051
5922.633516	0.090198	0.570357	4818.064941
5922.634467	0.090227	0.570357	4903.871094
5923.655645	1.086504	0.576568	483.494232
5923.656576	1.542367	0.576568	1919.437866
5923.657476	1.528960	0.576568	3295.501709
5923.658438	0.831720	0.576568	4095.616211
5923.659333	0.098774	0.576568	4184.019531
5923.660229	0.090139	0.576568	4264.784180
5923.661119	0.090190	0.576568	4345.053711
5923.662069	0.090216	0.576568	4430.758789
5923.662979	0.090260	0.576568	4512.895508
5923.663874	0.090205	0.576568	4593.628906
5923.664806	0.090253	0.576568	4677.744629
5923.665709	0.090275	0.576568	4759.262695
5923.666606	0.090128	0.576568	4840.107422
5923.667491	0.090190	0.576568	4919.925781
5924.659174	1.112406	0.595635	520.606018
5924.660082	1.542828	0.595635	1921.494141
5924.660981	1.529059	0.595635	3296.118164
5924.661957	0.806539	0.595635	4083.300537
5924.662859	0.097811	0.595635	4171.526367
5924.663750	0.090179	0.595635	4251.876465
5924.664702	0.090264	0.595635	4337.807617
5924.665605	0.090271	0.595635	4419.322266
5924.666500	0.090227	0.595635	4500.075684
5924.667388	0.090223	0.595635	4580.193848
5924.668330	0.090271	0.595635	4665.229004
5924.669229	0.090242	0.595635	4746.356445
5924.670134	0.090168	0.595635	4827.958984
5924.671026	0.090179	0.595635	4908.398926
5925.691333	1.071819	0.588432	468.384827
5925.692314	1.544480	0.588432	1983.519775
5925.693228	1.527059	0.588432	3379.251953
5925.694129	0.838909	0.588432	4135.108398
5925.695065	0.099346	0.588432	4228.096191
5925.695972	0.090253	0.588432	4309.955566
5925.696862	0.090183	0.588432	4390.218750
5925.697754	0.090212	0.588432	4470.687988
5925.698687	0.090385	0.588432	4555.016602
5925.699600	0.090220	0.588432	4637.387207
5925.700502	0.090245	0.588432	4718.788574
5925.701389	0.090249	0.588432	4798.839355
5925.702332	0.090297	0.588432	4883.989258
5925.703240	0.090256	0.588432	4965.941895
5926.697927	1.068102	0.612042	463.556152
5926.698900	1.544008	0.612042	1965.875610
5926.699818	1.527272	0.612042	3367.911133
5926.700721	0.834232	0.612042	4121.222656
5926.701661	0.098796	0.612042	4214.091309
5926.702562	0.090183	0.612042	4295.346191
5926.703452	0.090128	0.612042	4375.560059
5926.704338	0.090220	0.612042	4455.494629
5926.705286	0.090256	0.612042	4541.057617
5926.706183	0.090275	0.612042	4622.034180
5926.707080	0.090212	0.612042	4702.954590
5926.707970	0.090275	0.612042	4783.298828
5926.708923	0.090238	0.612042	4869.295898
5926.709832	0.090289	0.612042	4951.368652
5927.725566	1.117837	0.580375	534.325989
5927.726467	1.542788	0.580375	1924.378174
5927.727389	1.527913	0.580375	3333.113770
5927.728301	0.836349	0.580375	4095.863770
5927.729261	0.096138	0.580375	4188.155762
5927.730164	0.090165	0.580375	4269.574707
5927.731055	0.090190	0.580375	4349.934570
5927.731986	0.090282	0.580375	4433.987305
5927.732903	0.090209	0.580375	4516.708496
5927.733822	0.090253	0.580375	4599.650879
5927.734711	0.090300	0.580375	4679.927734
5927.735670	0.090201	0.580375	4766.430664
5927.736567	0.090267	0.580375	4847.400391
5927.737477	0.090194	0.580375	4929.477051
5928.738768	1.084123	0.603812	484.603210
5928.739726	1.543532	0.603812	1963.306396
5928.740663	1.526360	0.603812	3393.505615
5928.741575	0.791737	0.603812	4115.569824
5928.742518	0.096464	0.603812	4206.535156
5928.743434	0.090088	0.603812	4289.055664
5928.744347	0.090234	0.603812	4371.439453
5928.745237	0.090161	0.603812	4451.683105
5928.746190	0.090253	0.603812	4537.693848
5928.747111	0.090194	0.603812	4620.762695
5928.747998	0.090234	0.603812	4700.800781
5928.748938	0.090165	0.603812	4785.555664
5928.749854	0.090253	0.603812	4868.227051
5928.750768	0.090117	0.603812	4950.594238
5929.758666	1.079674	0.566006	472.897278
5929.759644	1.544703	0.566006	1983.617187
5929.760577	1.527001	0.566006	3408.309082
5929.761476	0.805203	0.566006	4132.186035
5929.762423	0.097050	0.566006	4224.091797
5929.763336	0.090183	0.566006	4306.429199
5929.764260	0.090242	0.566006	4389.812500
5929.765149	0.090238	0.566006	4470.034180
5929.766085	0.090238	0.566006	4554.497070
5929.767013	0.090220	0.566006	4638.221191
5929.767910	0.090242	0.566006	4719.167969
5929.768831	0.090179	0.566006	4802.223145
5929.769754	0.090187	0.566006	4885.465332
5929.770662	0.090249	0.566006	4967.411621
5930.779118	1.083732	0.582764	516.940002
5930.780066	1.544692	0.582764	1981.308350
5930.780979	1.527400	0.582764	3375.824463
5930.781888	0.806488	0.582764	4108.921875
5930.782844	0.096042	0.582764	4200.738281
5930.783775	0.090157	0.582764	4284.674805
5930.784679	0.090282	0.582764	4366.289551
5930.785597	0.090201	0.582764	4449.094238
5930.786526	0.090161	0.582764	4532.854004
5930.787450	0.090201	0.582764	4616.200195
5930.788363	0.090223	0.582764	4698.574219
5930.789260	0.090234	0.582764	4779.514648
5930.790211	0.090161	0.582764	4865.257812
5930.791150	0.090154	0.582764	4949.912109
5931.790804	1.072196	0.553220	478.199432
5931.791699	1.541287	0.553220	1857.651001
5931.792655	1.528590	0.553220	3318.983154
5931.793615	0.791671	0.553220	4078.987305
5931.794517	0.096617	0.553220	4166.136230
5931.795444	0.090223	0.553220	4249.773437
5931.796382	0.090146	0.553220	4334.331055
5931.797295	0.090190	0.553220	4416.674805
5931.798193	0.090249	0.553220	4497.718262
5931.799109	0.090183	0.553220	4580.326172
5931.800049	0.090212	0.553220	4665.125977
5931.800974	0.090223	0.553220	4748.582520
5931.801868	0.090260	0.553220	4829.274902
5931.802813	0.090187	0.553220	4914.501465
5932.818382	1.072679	0.578852	471.978943
5932.819335	1.542433	0.578852	1941.917480
5932.820284	1.527334	0.578852	3391.357422
5932.821217	0.767750	0.578852	4107.668457
5932.822107	0.096588	0.578852	4193.631836
5932.823061	0.090216	0.578852	4279.697754
5932.823991	0.090157	0.578852	4363.544434
5932.824893	0.090293	0.578852	4444.988770
5932.825815	0.090209	0.578852	4528.161133
5932.826747	0.090238	0.578852	4612.263184
5932.827667	0.090201	0.578852	4695.248535
5932.828562	0.090308	0.578852	4776.073730
5932.829516	0.090267	0.578852	4862.188965
5932.830454	0.090179	0.578852	4946.777344
5933.822963	1.092019	0.571094	515.432983
5933.823890	1.544260	0.571094	1946.962280
5933.824794	1.528451	0.571094	3328.681885
5933.825732	0.816544	0.571094	4094.600342
5933.826672	0.096636	0.571094	4185.437988
5933.827601	0.090212	0.571094	4269.245117
5933.828501	0.090322	0.571094	4350.535156
5933.829429	0.090256	0.571094	4434.292969
5933.830364	0.090256	0.571094	4518.682617
5933.831289	0.090297	0.571094	4602.207031
5933.832181	0.090297	0.571094	4682.751465
5933.833104	0.090220	0.571094	4766.024414
5933.834039	0.090271	0.571094	4850.427734
5933.834950	0.090238	0.571094	4932.634766
5934.855627	1.068003	0.584746	464.581268
5934.856562	1.542114	0.584746	1906.458130
5934.857498	1.528312	0.584746	3336.958008
5934.858431	0.817251	0.584746	4099.453125
5934.859320	0.098485	0.584746	4187.006348
5934.860271	0.090146	0.584746	4272.735840
5934.861205	0.090227	0.584746	4357.007812
5934.862121	0.090227	0.584746	4439.655762
5934.863010	0.090271	0.584746	4519.906738
5934.863962	0.090315	0.584746	4605.886719
5934.864860	0.090223	0.584746	4686.907227
5934.865752	0.090256	0.584746	4767.416016
5934.866642	0.090267	0.584746	4847.753906
5934.867579	0.090311	0.584746	4932.375488
5935.859147	1.065231	0.605355	466.571045
5935.860043	1.540843	0.605355	1847.166748
5935.861001	1.529626	0.605355	3312.548828
5935.861916	0.870601	0.605355	4109.148437
5935.862815	0.100573	0.605355	4199.562988
5935.863742	0.090187	0.605355	4283.166016
5935.864654	0.090231	0.605355	4365.456543
5935.865556	0.090201	0.605355	4446.818359
5935.866443	0.090157	0.605355	4526.788086
5935.867407	0.090304	0.605355	4613.841309
5935.868312	0.090190	0.605355	4695.463867
5935.869207	0.090212	0.605355	4776.204102
5935.870123	0.090231	0.605355	4858.855469
5935.871036	0.090260	0.605355	4941.262695
5936.890375	1.132225	0.588086	566.112671
5936.891289	1.544729	0.588086	1977.994995
5936.892205	1.527546	0.588086	3377.227539
5936.893106	0.817317	0.588086	4113.629883
5936.894069	0.095248	0.588086	4205.353516
5936.894981	0.090245	0.588086	4287.657227
5936.895882	0.090223	0.588086	4368.948730
5936.896769	0.090220	0.588086	4448.973633
5936.897716	0.090278	0.588086	4534.467285
5936.898607	0.090223	0.588086	4614.856445
5936.899525	0.090267	0.588086	4697.721680
5936.900418	0.090234	0.588086	4778.300781
5936.901350	0.090315	0.588086	4862.474121
5936.902250	0.090234	0.588086	4943.685059
5937.897425	1.076338	0.613395	474.664978
5937.898342	1.541968	0.613395	1888.649414
5937.899245	1.530015	0.613395	3270.252686
5937.900194	0.872311	0.613395	4098.075684
5937.901090	0.100745	0.613395	4188.342773
5937.901997	0.090143	0.613395	4270.102539
5937.902888	0.090212	0.613395	4350.481934
5937.903829	0.090297	0.613395	4435.451172
5937.904742	0.090223	0.613395	4517.825195
5937.905631	0.090176	0.613395	4597.991699
5937.906522	0.090190	0.613395	4678.351562
5937.907460	0.090256	0.613395	4763.012207
5937.908372	0.090179	0.613395	4845.255859
5937.909272	0.090205	0.613395	4926.440430
5938.925518	1.076221	0.566860	479.994446
5938.926411	1.541283	0.566860	1856.360107
5938.927392	1.528231	0.566860	3355.554932
5938.928320	0.806415	0.566860	4103.907715
5938.929217	0.097804	0.566860	4191.637695
5938.930103	0.090168	0.566860	4271.526855
5938.931053	0.090179	0.566860	4357.197266
5938.931949	0.090198	0.566860	4438.014648
5938.932865	0.090231	0.566860	4520.666016
5938.933765	0.090212	0.566860	4601.857422
5938.934727	0.090220	0.566860	4688.648926
5938.935628	0.090194	0.566860	4769.913574
5938.936525	0.090282	0.566860	4850.896484
5938.937459	0.090231	0.566860	4935.171875
5939.937766	1.110868	0.595639	516.553528
5939.938681	1.543125	0.595639	1928.512939
5939.939621	1.527887	0.595639	3364.726562
5939.940524	0.822283	0.595639	4107.248047
5939.941480	0.096401	0.595639	4199.407715
5939.942374	0.090165	0.595639	4280.015137
5939.943260	0.090154	0.595639	4359.891602
5939.944195	0.090242	0.595639	4444.267578
5939.945103	0.090172	0.595639	4526.144043
5939.946020	0.090198	0.595639	4608.855469
5939.946911	0.090234	0.595639	4689.254395
5939.947868	0.090271	0.595639	4775.643555
5939.948777	0.090275	0.595639	4857.703125
5939.949666	0.090198	0.595639	4937.889160
5940.959181	1.064993	0.560101	466.466797
5940.960080	1.540840	0.560101	1851.681885
5940.961050	1.528733	0.560101	3334.552734
5940.961981	0.825461	0.560101	4103.057129
5940.962893	0.097661	0.560101	4192.124023
5940.963803	0.090198	0.560101	4274.204102
5940.964743	0.090212	0.560101	4359.003906
5940.965638	0.090198	0.560101	4439.730957
5940.966555	0.090220	0.560101	4522.462402
5940.967451	0.090143	0.560101	4603.230469
5940.968404	0.090249	0.560101	4689.237793
5940.969326	0.090227	0.560101	4772.427246
5940.970220	0.090216	0.560101	4853.080566
5940.971154	0.090212	0.560101	4937.338867
5941.977036	1.066564	0.566417	468.221466
5941.978018	1.544304	0.566417	1984.728271
5941.978920	1.527283	0.566417	3362.337402
5941.979854	0.790093	0.566417	4100.284180
5941.980753	0.097046	0.566417	4187.528320
5941.981712	0.090165	0.566417	4273.996582
5941.982637	0.090190	0.566417	4357.422852
5941.983561	0.090238	0.566417	4440.802734
5941.984454	0.090220	0.566417	4521.369141
5941.985406	0.090150	0.566417	4607.191895
5941.986340	0.090227	0.566417	4691.463867
5941.987238	0.090220	0.566417	4772.480957
5941.988171	0.090278	0.566417	4856.710449
5941.989111	0.090190	0.566417	4941.489258
5942.993355	1.063989	0.541752	468.155273
5942.994248	1.540712	0.541752	1844.010742
5942.995210	1.528608	0.541752	3314.531982
5942.996168	0.802738	0.541752	4083.554932
5942.997066	0.097207	0.541752	4170.846680
5942.997984	0.090088	0.541752	4253.547363
5942.998915	0.090194	0.541752	4337.518066
5942.999829	0.090183	0.541752	4419.945312
5943.000727	0.090220	0.541752	4500.962402
5943.001672	0.090238	0.541752	4586.237305
5943.002604	0.090205	0.541752	4670.308594
5943.003509	0.090216	0.541752	4751.954102
5943.004409	0.090128	0.541752	4833.069336
5943.005351	0.090289	0.541752	4918.122070
5944.014283	1.066904	0.550038	466.237183
5944.015251	1.543403	0.550038	1960.251587
5944.016178	1.527378	0.550038	3376.130859
5944.017093	0.805214	0.550038	4112.901367
5944.018026	0.097551	0.550038	4203.916504
5944.018973	0.090172	0.550038	4289.309570
5944.019905	0.090081	0.550038	4373.264648
5944.020806	0.090198	0.550038	4454.532715
5944.021725	0.090179	0.550038	4537.407715
5944.022648	0.090176	0.550038	4620.640137
5944.023571	0.090179	0.550038	4703.875977
5944.024469	0.090223	0.550038	4784.896484
5944.025385	0.090201	0.550038	4867.520996
5944.026325	0.090190	0.550038	4952.299805
5945.027028	1.077817	0.536354	480.706512
5945.027922	1.541206	0.536354	1858.544800
5945.028907	1.527671	0.536354	3363.300537
5945.029860	0.765418	0.536354	4092.743408
5945.030746	0.096259	0.536354	4178.028320
5945.031672	0.090179	0.536354	4261.534668
5945.032608	0.090172	0.536354	4345.935547
5945.033526	0.090231	0.536354	4428.767578
5945.034419	0.090132	0.536354	4509.255371
5945.035372	0.090110	0.536354	4595.129883
5945.036316	0.090205	0.536354	4680.283691
5945.037216	0.090256	0.536354	4761.514648
5945.038131	0.090179	0.536354	4844.028809
5945.039076	0.090205	0.536354	4929.272461
5946.050013	1.087335	0.558788	488.213531
5946.050916	1.542444	0.558788	1881.040161
5946.051848	1.529077	0.558788	3306.140137
5946.052806	0.812377	0.558788	4084.396973
5946.053724	0.096969	0.558788	4173.414551
5946.054614	0.090172	0.558788	4253.667969
5946.055559	0.090209	0.558788	4338.915039
5946.056499	0.090183	0.558788	4423.687012
5946.057416	0.090282	0.558788	4506.475586
5946.058306	0.090201	0.558788	4586.754883
5946.059252	0.090205	0.558788	4672.088867
5946.060179	0.090238	0.558788	4755.739746
5946.061076	0.090223	0.558788	4836.669922
5946.062000	0.090183	0.558788	4919.999023
5947.061195	1.061675	0.549550	460.766876
5947.062148	1.541353	0.549550	1929.675781
5947.063075	1.528473	0.549550	3346.570312
5947.063999	0.827802	0.549550	4111.458984
5947.064895	0.098756	0.549550	4199.944336
5947.065824	0.090260	0.549550	4283.795898
5947.066723	0.090348	0.549550	4365.018555
5947.067621	0.090278	0.549550	4446.088379
5947.068508	0.090326	0.549550	4526.207520
5947.069447	0.090300	0.549550	4610.999512
5947.070351	0.090344	0.549550	4692.670898
5947.071250	0.090190	0.549550	4773.751953
5947.072142	0.090253	0.549550	4854.257324
5947.073107	0.090377	0.549550	4941.471191
5948.087260	1.087050	0.545788	491.346436
5948.088154	1.541880	0.545788	1869.786987
5948.089108	1.529348	0.545788	3328.785156
5948.090026	0.862489	0.545788	4120.550293
5948.090924	0.100265	0.545788	4210.588379
5948.091811	0.090201	0.545788	4290.597168
5948.092747	0.090216	0.545788	4375.039551
5948.093647	0.090333	0.545788	4456.339355
5948.094550	0.090253	0.545788	4537.837402
5948.095439	0.090333	0.545788	4618.143555
5948.096389	0.090370	0.545788	4703.995117
5948.097295	0.090205	0.545788	4785.720703
5948.098185	0.090249	0.545788	4866.042480
5948.099124	0.090282	0.545788	4950.817383
5949.095910	1.107880	0.546674	512.948242
5949.096829	1.543319	0.546674	1931.258545
5949.097739	1.528986	0.546674	3322.635498
5949.098639	0.866558	0.546674	4102.537598
5949.099587	0.097969	0.546674	4195.412109
5949.100495	0.090139	0.546674	4277.258301
5949.101388	0.090238	0.546674	4357.840820
5949.102336	0.090293	0.546674	4443.438477
5949.103242	0.090333	0.546674	4525.280273
5949.104137	0.090249	0.546674	4606.053223
5949.105026	0.090304	0.546674	4686.333496
5949.105959	0.090392	0.546674	4770.668945
5949.106858	0.090275	0.546674	4851.825684
5949.107764	0.090282	0.546674	4933.621094
5950.121936	1.069515	0.551645	473.795288
5950.122891	1.544081	0.551645	1948.392334
5950.123807	1.528564	0.551645	3348.557373
5950.124712	0.851001	0.551645	4118.713379
5950.125597	0.100400	0.551645	4207.567871
5950.126542	0.090256	0.551645	4292.860352
5950.127444	0.090322	0.551645	4374.331055
5950.128332	0.090293	0.551645	4454.511230
5950.129266	0.090308	0.551645	4538.858398
5950.130180	0.090300	0.551645	4621.393066
5950.131077	0.090300	0.551645	4702.392578
5950.131966	0.090293	0.551645	4782.663086
5950.132918	0.090352	0.551645	4868.677734
5950.133823	0.090293	0.551645	4950.393066
5951.131588	1.064008	0.543166	461.779327
5951.132548	1.541144	0.543166	1941.277344
5951.133475	1.527726	0.543166	3357.479004
5951.134388	0.826230	0.543166	4111.827148
5951.135275	0.099075	0.543166	4199.706543
5951.136226	0.090245	0.543166	4285.529785
5951.137138	0.090227	0.543166	4367.816895
5951.138034	0.090183	0.543166	4448.621094
5951.138920	0.090245	0.543166	4528.578613
5951.139851	0.090260	0.543166	4612.610840
5951.140759	0.090231	0.543166	4694.540527
5951.141675	0.090216	0.543166	4777.178223
5951.142576	0.090267	0.543166	4858.509277
5951.143541	0.090209	0.543166	4945.560547
5952.156626	1.080344	0.549087	480.753235
5952.157532	1.542015	0.549087	1877.819336
5952.158427	1.530970	0.549087	3248.037842
5952.159368	0.909488	0.549087	4103.866699
5952.160300	0.100704	0.549087	4197.723145
5952.161196	0.090271	0.549087	4278.605957
5952.162085	0.090231	0.549087	4358.821289
5952.163026	0.090216	0.549087	4443.714844
5952.163927	0.090289	0.549087	4525.065430
5952.164842	0.090322	0.549087	4607.710449
5952.165738	0.090223	0.549087	4688.550781
5952.166704	0.090308	0.549087	4775.788086
5952.167603	0.090212	0.549087	4856.889160
5952.168495	0.090330	0.549087	4937.463379
5953.167841	1.097245	0.545305	505.829895
5953.168744	1.542579	0.545305	1898.779053
5953.169704	1.528173	0.545305	3365.824707
5953.170632	0.800665	0.545305	4108.842285
5953.171551	0.096881	0.545305	4197.875977
5953.172442	0.090242	0.545305	4278.281250
5953.173395	0.090242	0.545305	4364.281738
5953.174302	0.090132	0.545305	4446.031250
5953.175193	0.090194	0.545305	4526.394043
5953.176123	0.090267	0.545305	4610.342773
5953.177021	0.090176	0.545305	4691.320801
5953.177939	0.090227	0.545305	4774.149414
5953.178828	0.090201	0.545305	4854.338379
5953.179767	0.090216	0.545305	4939.051270
5954.191824	1.071914	0.553047	474.857941
5954.192718	1.540957	0.553047	1852.473511
5954.193684	1.527960	0.553047	3328.482910
5954.194635	0.794725	0.553047	4084.266602
5954.195533	0.097174	0.553047	4171.528809
5954.196469	0.090271	0.553047	4256.022461
5954.197383	0.090238	0.553047	4338.500000
5954.198304	0.090256	0.553047	4421.625977
5954.199195	0.090227	0.553047	4502.018066
5954.200149	0.090297	0.553047	4588.161133
5954.201065	0.090297	0.553047	4670.873047
5954.201987	0.090311	0.553047	4754.140137
5954.202874	0.090198	0.553047	4834.145508
5954.203829	0.090245	0.553047	4920.329590
5955.206127	1.082084	0.551814	508.579346
5955.207060	1.543253	0.551814	1948.434448
5955.207981	1.527664	0.551814	3355.412598
5955.208884	0.829706	0.551814	4104.636719
5955.209823	0.098137	0.551814	4196.787598
5955.210733	0.090205	0.551814	4278.874023
5955.211653	0.090231	0.551814	4361.886230
5955.212541	0.090275	0.551814	4442.050293
5955.213500	0.090289	0.551814	4528.637695
5955.214414	0.090201	0.551814	4611.082031
5955.215304	0.090337	0.551814	4691.481934
5955.216228	0.090297	0.551814	4774.916016
5955.217157	0.090183	0.551814	4858.696289
5955.218068	0.090198	0.551814	4940.866211
5956.226558	1.111740	0.565398	546.975830
5956.227498	1.544421	0.565398	1998.731812
5956.228421	1.526213	0.565398	3407.426758
5956.229317	0.785218	0.565398	4110.982422
5956.230275	0.095149	0.565398	4202.135254
5956.231194	0.090216	0.565398	4285.043945
5956.232120	0.090326	0.565398	4368.685547
5956.233019	0.090234	0.565398	4449.806152
5956.233969	0.090209	0.565398	4535.504395
5956.234911	0.090242	0.565398	4620.512207
5956.235813	0.090249	0.565398	4701.916992
5956.236736	0.090293	0.565398	4785.257324
5956.237677	0.090242	0.565398	4870.174805
5956.238603	0.090264	0.565398	4953.758789
5957.246409	1.066670	0.545671	466.134705
5957.247377	1.542942	0.545671	1959.702393
5957.248308	1.526843	0.545671	3381.193359
5957.249218	0.804108	0.545671	4112.931152
5957.250140	0.097844	0.545671	4203.143555
5957.251088	0.090242	0.545671	4288.692871
5957.252021	0.090260	0.545671	4372.905273
5957.252922	0.090264	0.545671	4454.232910
5957.253848	0.090286	0.545671	4537.837402
5957.254769	0.090245	0.545671	4620.953613
5957.255684	0.090242	0.545671	4703.524902
5957.256583	0.090201	0.545671	4784.616211
5957.257502	0.090238	0.545671	4867.544922
5957.258436	0.090282	0.545671	4951.868164
5958.260728	1.089229	0.571497	516.294312
5958.261639	1.543198	0.571497	1922.147949
5958.262576	1.527543	0.571497	3353.455566
5958.263477	0.836085	0.571497	4106.768555
5958.264440	0.096804	0.571497	4199.991211
5958.265376	0.090194	0.571497	4284.413086
5958.266278	0.090256	0.571497	4365.824219
5958.267196	0.090146	0.571497	4448.578613
5958.268133	0.090220	0.571497	4533.114258
5958.269047	0.090220	0.571497	4615.575195
5958.269948	0.090304	0.571497	4696.938965
5958.270877	0.090271	0.571497	4780.800781
5958.271809	0.090278	0.571497	4864.939941
5958.272728	0.090256	0.571497	4947.885742
5959.285199	1.075159	0.549470	475.220154
5959.286114	1.541763	0.549470	1885.933105
5959.287020	1.529890	0.549470	3272.013672
5959.287983	0.862720	0.549470	4102.812500
5959.288888	0.099144	0.549470	4192.538086
5959.289792	0.090212	0.549470	4274.090332
5959.290679	0.090256	0.549470	4354.147949
5959.291625	0.090337	0.549470	4439.606445
5959.292522	0.090319	0.549470	4520.622070
5959.293419	0.090267	0.549470	4601.591797
5959.294306	0.090264	0.549470	4681.655762
5959.295251	0.090454	0.549470	4767.134766
5959.296168	0.090256	0.549470	4849.899902
5959.297063	0.090293	0.549470	4930.711914
5960.294396	1.087669	0.578228	532.957581
5960.295325	1.544982	0.578228	1968.245605
5960.296241	1.527275	0.578228	3367.229980
5960.297147	0.810784	0.578228	4101.799805
5960.298086	0.096584	0.578228	4192.492676
5960.298984	0.090289	0.578228	4273.572266
5960.299883	0.090304	0.578228	4354.755371
5960.300767	0.090300	0.578228	4434.581055
5960.301715	0.090278	0.578228	4520.165039
5960.302612	0.090289	0.578228	4601.154297
5960.303509	0.090297	0.578228	4682.150391
5960.304438	0.090282	0.578228	4766.022461
5960.305345	0.090304	0.578228	4847.928223
5960.306247	0.090256	0.578228	4929.339355
5961.322960	1.070087	0.547399	475.118439
5961.323857	1.541342	0.547399	1857.701782
5961.324805	1.529392	0.547399	3307.565430
5961.325733	0.855425	0.547399	4101.399414
5961.326631	0.099536	0.547399	4190.782715
5961.327524	0.090143	0.547399	4271.280273
5961.328478	0.090275	0.547399	4357.402344
5961.329387	0.090212	0.547399	4439.405273
5961.330286	0.090275	0.547399	4520.562012
5961.331172	0.090190	0.547399	4600.470703
5961.332122	0.090190	0.547399	4686.151367
5961.333018	0.090242	0.547399	4767.007812
5961.333911	0.090271	0.547399	4847.619629
5961.334845	0.090183	0.547399	4931.850586
5962.326995	1.073500	0.576178	472.339844
5962.327897	1.541301	0.576178	1862.593628
5962.328844	1.528623	0.576178	3310.199707
5962.329766	0.842886	0.576178	4087.340332
5962.330700	0.097412	0.576178	4178.323242
5962.331589	0.090231	0.576178	4258.538574
5962.332546	0.090282	0.576178	4344.938477
5962.333443	0.090212	0.576178	4425.858887
5962.334334	0.090264	0.576178	4506.283691
5962.335266	0.090363	0.576178	4590.501465
5962.336166	0.090223	0.576178	4671.702637
5962.337088	0.090249	0.576178	4754.912109
5962.337986	0.090348	0.576178	4836.044434
5962.338919	0.090330	0.576178	4920.321777
5963.358711	1.091378	0.553019	524.952942
5963.359643	1.544121	0.553019	1964.073730
5963.360564	1.526840	0.553019	3370.292969
5963.361470	0.808169	0.553019	4102.494141
5963.362424	0.096130	0.553019	4194.202637
5963.363326	0.090139	0.553019	4275.508301
5963.364248	0.090216	0.553019	4358.687500
5963.365139	0.090220	0.553019	4439.073242
5963.366086	0.090198	0.553019	4524.490723
5963.367011	0.090231	0.553019	4607.954102
5963.367903	0.090267	0.553019	4688.472656
5963.368842	0.090238	0.553019	4773.206055
5963.369763	0.090157	0.553019	4856.241211
5963.370682	0.090216	0.553019	4939.149902
5964.361175	1.085270	0.566699	486.200867
5964.362069	1.540939	0.566699	1863.800049
5964.363052	1.527436	0.566699	3365.270020
5964.363997	0.775701	0.566699	4098.307129
5964.364891	0.096830	0.566699	4184.873047
5964.365818	0.090242	0.566699	4268.527344
5964.366751	0.090234	0.566699	4352.715820
5964.367671	0.090278	0.566699	4435.771973
5964.368564	0.090216	0.566699	4516.334961
5964.369514	0.090245	0.566699	4602.067871
5964.370452	0.090187	0.566699	4686.663086
5964.371351	0.090304	0.566699	4767.846191
5964.372272	0.090341	0.566699	4851.049805
5964.373213	0.090359	0.566699	4936.077637
5965.393896	1.113204	0.548044	514.300415
5965.394840	1.544454	0.548044	1972.265259
5965.395736	1.528356	0.548044	3341.671875
5965.396681	0.798831	0.548044	4096.566895
5965.397621	0.096105	0.548044	4186.905273
5965.398542	0.090179	0.548044	4269.960449
5965.399432	0.090249	0.548044	4350.282227
5965.400374	0.090256	0.548044	4435.303711
5965.401313	0.090212	0.548044	4520.013184
5965.402204	0.090297	0.548044	4600.467285
5965.403135	0.090212	0.548044	4684.455078
5965.404065	0.090231	0.548044	4768.369629
5965.404983	0.090256	0.548044	4851.225098
5965.405878	0.090176	0.548044	4931.932617
5966.399491	1.096930	0.546598	542.980286
5966.400428	1.544557	0.546598	1990.229980
5966.401360	1.526027	0.546598	3412.486816
5966.402269	0.764956	0.546598	4107.832031
5966.403210	0.095317	0.546598	4197.525879
5966.404143	0.090194	0.546598	4281.676758
5966.405061	0.090249	0.546598	4364.525391
5966.405964	0.090231	0.546598	4446.003906
5966.406904	0.090311	0.546598	4530.896484
5966.407837	0.090249	0.546598	4615.098633
5966.408755	0.090227	0.546598	4697.927246
5966.409645	0.090249	0.546598	4778.249023
5966.410593	0.090220	0.546598	4863.777344
5966.411521	0.090271	0.546598	4947.548828
5967.427545	1.082347	0.563303	480.562256
5967.428460	1.542004	0.563303	1891.496216
5967.429367	1.529696	0.563303	3278.930420
5967.430299	0.882949	0.563303	4101.838867
5967.431219	0.099218	0.563303	4193.119141
5967.432124	0.090135	0.563303	4274.691895
5967.433017	0.090234	0.563303	4355.270996
5967.433959	0.090308	0.563303	4440.340820
5967.434859	0.090271	0.563303	4521.584961
5967.435756	0.090183	0.563303	4602.479004
5967.436654	0.090297	0.563303	4683.565430
5967.437587	0.090293	0.563303	4767.808594
5967.438487	0.090278	0.563303	4849.059082
5967.439383	0.090256	0.563303	4929.928711
5968.440309	1.089214	0.536326	526.090271
5968.441225	1.543649	0.536326	1940.072510
5968.442133	1.528359	0.536326	3327.822754
5968.443029	0.869366	0.536326	4106.774902
5968.443988	0.097009	0.536326	4199.806641
5968.444891	0.090278	0.536326	4281.328125
5968.445798	0.090231	0.536326	4363.167480
5968.446695	0.090242	0.536326	4444.114258
5968.447625	0.090293	0.536326	4528.086914
5968.448536	0.090051	0.536326	4610.123535
5968.449441	0.090212	0.536326	4691.765625
5968.450335	0.090271	0.536326	4772.467773
5968.451276	0.090333	0.536326	4857.471191
5968.452171	0.090311	0.536326	4938.299805
5969.461247	1.113007	0.573664	546.486206
5969.462164	1.543879	0.573664	1962.223633
5969.463081	1.527103	0.573664	3362.577393
5969.463987	0.825857	0.573664	4110.803711
5969.464948	0.095475	0.573664	4202.555176
5969.465855	0.090157	0.573664	4284.328125
5969.466747	0.090304	0.573664	4364.879395
5969.467672	0.090245	0.573664	4448.356445
5969.468586	0.090212	0.573664	4530.810547
5969.469482	0.090176	0.573664	4611.607910
5969.470368	0.090260	0.573664	4691.578125
5969.471302	0.090275	0.573664	4775.894531
5969.472220	0.090260	0.573664	4858.753418
5969.473139	0.090194	0.573664	4941.641602
5970.481677	1.134540	0.527004	571.808105
5970.482580	1.543828	0.527004	1965.884888
5970.483497	1.527242	0.527004	3366.366211
5970.484410	0.810732	0.527004	4106.564941
5970.485371	0.095270	0.527004	4198.119141
5970.486283	0.090260	0.527004	4280.436035
5970.487179	0.090271	0.527004	4361.318848
5970.488100	0.090341	0.527004	4444.522461
5970.489017	0.090187	0.527004	4527.223633
5970.489931	0.090267	0.527004	4609.728027
5970.490818	0.090234	0.527004	4689.766113
5970.491779	0.090253	0.527004	4776.499023
5970.492672	0.090249	0.527004	4857.091309
5970.493594	0.090198	0.527004	4940.253418
5971.494365	1.081791	0.571328	485.724060
5971.495321	1.543546	0.571328	1961.354248
5971.496261	1.526016	0.571328	3395.808838
5971.497185	0.770189	0.571328	4107.463867
5971.498075	0.096705	0.571328	4193.531738
5971.499026	0.090190	0.571328	4279.302734
5971.499956	0.090150	0.571328	4363.142578
5971.500878	0.090172	0.571328	4446.281250
5971.501773	0.090168	0.571328	4526.981934
5971.502725	0.090114	0.571328	4612.770020
5971.503653	0.090135	0.571328	4696.415527
5971.504553	0.090253	0.571328	4777.643066
5971.505473	0.090231	0.571328	4860.655273
5971.506411	0.090198	0.571328	4945.260742
5972.520419	1.085438	0.528599	494.959778
5972.521316	1.542004	0.528599	1878.137695
5972.522251	1.528312	0.528599	3307.109131
5972.523201	0.820957	0.528599	4087.018311
5972.524122	0.097090	0.528599	4176.437988
5972.525019	0.090150	0.528599	4257.302734
5972.525970	0.090183	0.528599	4343.066895
5972.526910	0.090194	0.528599	4427.849121
5972.527829	0.090194	0.528599	4510.737305
5972.528718	0.090092	0.528599	4590.828613
5972.529660	0.090139	0.528599	4675.739746
5972.530598	0.090198	0.528599	4760.345215
5972.531498	0.090183	0.528599	4841.509766
5972.532424	0.090194	0.528599	4925.029297
5973.527499	1.068516	0.582297	469.078369
5973.528395	1.540276	0.582297	1849.165649
5973.529353	1.528169	0.582297	3313.151367
5973.530315	0.803225	0.582297	4085.854004
5973.531218	0.096768	0.582297	4173.235352
5973.532134	0.090092	0.582297	4255.759277
5973.533067	0.090172	0.582297	4339.889648
5973.534000	0.090249	0.582297	4424.091797
5973.534896	0.090179	0.582297	4504.892578
5973.535808	0.090201	0.582297	4587.156250
5973.536729	0.090187	0.582297	4670.218262
5973.537656	0.090249	0.582297	4753.878906
5973.538556	0.090234	0.582297	4835.089844
5973.539475	0.090256	0.582297	4918.035645
5974.556658	1.121052	0.535226	531.378784
5974.557578	1.543271	0.535226	1951.188477
5974.558491	1.527466	0.535226	3345.764648
5974.559393	0.848518	0.535226	4111.127930
5974.560340	0.097354	0.535226	4203.321777
5974.561241	0.090231	0.535226	4284.619629
5974.562136	0.090172	0.535226	4365.323730
5974.563071	0.090271	0.535226	4449.727051
5974.563967	0.090341	0.535226	4530.672363
5974.564868	0.090205	0.535226	4611.947266
5974.565757	0.090242	0.535226	4692.172363
5974.566693	0.090267	0.535226	4776.662598
5974.567595	0.090293	0.535226	4858.106934
5974.568500	0.090220	0.535226	4939.755859
5975.561676	1.070625	0.570591	473.216278
5975.562573	1.540129	0.570591	1854.712402
5975.563543	1.527253	0.570591	3336.148193
5975.564467	0.830295	0.570591	4103.341309
5975.565360	0.098741	0.570591	4191.517578
5975.566292	0.090227	0.570591	4275.609375
5975.567197	0.090352	0.570591	4357.377441
5975.568104	0.090205	0.570591	4439.193359
5975.568994	0.090205	0.570591	4519.476074
5975.569932	0.090308	0.570591	4604.184570
5975.570843	0.090326	0.570591	4686.471680
5975.571744	0.090176	0.570591	4767.720215
5975.572635	0.090319	0.570591	4848.193848
5975.573581	0.090311	0.570591	4933.628418
5976.592324	1.066179	0.517586	464.854126
5976.593289	1.540518	0.517586	1951.453613
5976.594208	1.526880	0.517586	3354.656250
5976.595121	0.827509	0.517586	4110.171387
5976.596010	0.098947	0.517586	4198.134766
5976.596974	0.090187	0.517586	4285.074707
5976.597879	0.090157	0.517586	4366.666992
5976.598778	0.090234	0.517586	4447.787598
5976.599665	0.090231	0.517586	4527.822266
5976.600609	0.090143	0.517586	4612.916992
5976.601517	0.090165	0.517586	4694.786621
5976.602407	0.090194	0.517586	4775.059570
5976.603332	0.090278	0.517586	4858.566895
5976.604243	0.090242	0.517586	4940.776855
5977.595854	1.062056	0.580770	464.118286
5977.596796	1.542319	0.580770	1916.983032
5977.597711	1.527700	0.580770	3314.828613
5977.598630	0.855707	0.580770	4101.223145
5977.599522	0.100181	0.580770	4190.584473
5977.600482	0.090267	0.580770	4277.241211
5977.601383	0.090157	0.580770	4358.473145
5977.602302	0.090271	0.580770	4441.432129
5977.603188	0.090187	0.580770	4521.337402
5977.604150	0.090132	0.580770	4608.044434
5977.605050	0.090271	0.580770	4689.288086
5977.605939	0.090227	0.580770	4769.500000
5977.606879	0.090297	0.580770	4854.378906
5977.607794	0.090227	0.580770	4936.936523
5978.628591	1.109908	0.510987	523.876770
5978.629499	1.542616	0.510987	1924.572021
5978.630455	1.526704	0.510987	3384.101074
5978.631366	0.796919	0.510987	4110.094238
5978.632289	0.096475	0.510987	4199.140137
5978.633177	0.090139	0.510987	4279.183594
5978.634131	0.090282	0.510987	4365.312500
5978.635041	0.090234	0.510987	4447.425781
5978.635958	0.090260	0.510987	4530.194336
5978.636856	0.090194	0.510987	4611.188477
5978.637817	0.090183	0.510987	4697.854492
5978.638735	0.090212	0.510987	4780.669434
5978.639631	0.090264	0.510987	4861.545898
5978.640555	0.090190	0.510987	4944.881836
5979.632085	1.076096	0.551178	485.319366
5979.632986	1.541104	0.551178	1873.853638
5979.633944	1.527700	0.551178	3337.390381
5979.634880	0.814131	0.551178	4099.416992
5979.635800	0.096698	0.551178	4188.378906
5979.636692	0.090092	0.551178	4268.740723
5979.637650	0.090092	0.551178	4355.048340
5979.638548	0.090125	0.551178	4435.979980
5979.639477	0.090117	0.551178	4519.698730
5979.640379	0.090179	0.551178	4601.040527
5979.641315	0.090154	0.551178	4685.424316
5979.642223	0.090099	0.551178	4767.233887
5979.643116	0.090121	0.551178	4847.711914
5979.644052	0.090139	0.551178	4932.082031
5980.664304	1.096505	0.517602	520.839966
5980.665248	1.543843	0.517602	1978.227539
5980.666182	1.525752	0.517602	3403.279785
5980.667082	0.796381	0.517602	4120.022461
5980.668009	0.097031	0.517602	4209.970215
5980.668944	0.090135	0.517602	4294.247070
5980.669862	0.090176	0.517602	4377.028320
5980.670752	0.090139	0.517602	4457.251953
5980.671686	0.090176	0.517602	4541.476074
5980.672621	0.090168	0.517602	4625.783691
5980.673522	0.090205	0.517602	4707.058594
5980.674438	0.090139	0.517602	4789.625977
5980.675370	0.090234	0.517602	4873.724609
5980.676288	0.090198	0.517602	4956.526367
5981.667836	1.105561	0.544314	532.880615
5981.668774	1.543367	0.544314	1980.558594
5981.669709	1.525052	0.544314	3406.482666
5981.670616	0.771405	0.544314	4106.146973
5981.671577	0.094849	0.544314	4197.296387
5981.672517	0.090139	0.544314	4282.027344
5981.673413	0.090135	0.544314	4362.788574
5981.674327	0.090282	0.544314	4445.306152
5981.675259	0.090106	0.544314	4529.285156
5981.676184	0.090242	0.544314	4612.758789
5981.677070	0.090245	0.544314	4692.716309
5981.677999	0.090161	0.544314	4776.476074
5981.678935	0.090187	0.544314	4860.891113
5981.679854	0.090271	0.544314	4943.850098
5982.701556	1.077023	0.506290	508.354706
5982.702471	1.542264	0.506290	1919.526733
5982.703386	1.527631	0.506290	3317.308838
5982.704293	0.860167	0.506290	4097.480469
5982.705226	0.098199	0.506290	4189.100586
5982.706158	0.090117	0.506290	4273.089844
5982.707069	0.090223	0.506290	4355.283203
5982.707966	0.090209	0.506290	4436.200195
5982.708909	0.090172	0.506290	4521.232422
5982.709857	0.090201	0.506290	4606.743164
5982.710757	0.090176	0.506290	4687.901367
5982.711691	0.090260	0.506290	4772.204102
5982.712623	0.090183	0.506290	4856.254883
5982.713546	0.090282	0.506290	4939.584961
5983.704022	1.076202	0.543911	477.833862
5983.704990	1.543143	0.543911	1971.596680
5983.705937	1.525540	0.543911	3416.282715
5983.706863	0.748231	0.543911	4109.144531
5983.707770	0.095870	0.543911	4196.099121
5983.708701	0.090179	0.543911	4280.056152
5983.709634	0.090198	0.543911	4364.210449
5983.710533	0.090271	0.543911	4445.364258
5983.711451	0.090234	0.543911	4528.199219
5983.712387	0.090282	0.543911	4612.703125
5983.713320	0.090231	0.543911	4696.888184
5983.714214	0.090106	0.543911	4777.443359
5983.715138	0.090198	0.543911	4860.786133
5983.716074	0.090106	0.543911	4945.125488
5984.737244	1.070870	0.499285	475.466461
5984.738143	1.540356	0.499285	1860.246826
5984.739105	1.527869	0.499285	3330.056396
5984.740025	0.830054	0.499285	4093.705811
5984.740929	0.098269	0.499285	4182.541016
5984.741847	0.090172	0.499285	4265.318848
5984.742775	0.090319	0.499285	4349.134277
5984.743681	0.090161	0.499285	4430.820312
5984.744575	0.090297	0.499285	4511.545410
5984.745496	0.090271	0.499285	4594.685059
5984.746398	0.090242	0.499285	4676.083008
5984.747297	0.090300	0.499285	4757.263184
5984.748188	0.090190	0.499285	4837.623047
5984.749123	0.090231	0.499285	4921.988770
5985.739738	1.083962	0.541103	482.363220
5985.740646	1.541217	0.541103	1881.788330
5985.741542	1.529312	0.541103	3252.051514
5985.742513	0.847705	0.541103	4075.173096
5985.743417	0.099598	0.541103	4165.209961
5985.744308	0.090190	0.541103	4245.569824
5985.745244	0.090297	0.541103	4330.087402
5985.746144	0.090297	0.541103	4411.354492
5985.747040	0.090205	0.541103	4492.178223
5985.747930	0.090249	0.541103	4572.500000
5985.748871	0.090286	0.541103	4657.458984
5985.749774	0.090205	0.541103	4738.914062
5985.750676	0.090168	0.541103	4820.246094
5985.751566	0.090220	0.541103	4900.541504
5986.772970	1.094626	0.503261	501.338898
5986.773884	1.541938	0.503261	1910.670532
5986.774780	1.528780	0.503261	3280.458008
5986.775752	0.834869	0.503261	4091.951172
5986.776649	0.098412	0.503261	4180.226562
5986.777553	0.090135	0.503261	4261.708984
5986.778443	0.090194	0.503261	4341.981934
5986.779373	0.090275	0.503261	4425.937500
5986.780276	0.090249	0.503261	4507.432129
5986.781202	0.090220	0.503261	4590.975586
5986.782092	0.090194	0.503261	4671.248535
5986.783038	0.090242	0.503261	4756.617187
5986.783940	0.090282	0.503261	4838.051758
5986.784860	0.090282	0.503261	4921.111328
5987.777496	1.077656	0.542122	483.867615
5987.778395	1.540928	0.542122	1869.161621
5987.779333	1.528444	0.542122	3302.841797
5987.780256	0.868740	0.542122	4104.688965
5987.781182	0.098778	0.542122	4196.157227
5987.782069	0.090117	0.542122	4276.091309
5987.783010	0.090231	0.542122	4360.998535
5987.783905	0.090249	0.542122	4441.771484
5987.784820	0.090216	0.542122	4524.319336
5987.785714	0.090209	0.542122	4604.965820
5987.786670	0.090245	0.542122	4691.240234
5987.787578	0.090267	0.542122	4773.203125
5987.788466	0.090205	0.542122	4853.305176
5987.789399	0.090304	0.542122	4937.558594
5988.808651	1.063645	0.502298	462.685577
5988.809606	1.540551	0.502298	1933.911377
5988.810533	1.527927	0.502298	3350.299805
5988.811469	0.806602	0.502298	4105.278809
5988.812359	0.097961	0.502298	4192.464355
5988.813301	0.090172	0.502298	4277.406250
5988.814216	0.090267	0.502298	4360.000977
5988.815136	0.090256	0.502298	4443.036621
5988.816028	0.090264	0.502298	4523.551758
5988.816986	0.090234	0.502298	4609.996094
5988.817906	0.090234	0.502298	4693.011719
5988.818795	0.090271	0.502298	4773.262695
5988.819736	0.090308	0.502298	4858.242187
5988.820643	0.090128	0.502298	4939.988281
5989.815762	1.073679	0.542827	473.492523
5989.816711	1.541433	0.542827	1936.312622
5989.817668	1.526422	0.542827	3397.098633
5989.818609	0.754578	0.542827	4107.156250
5989.819497	0.096050	0.542827	4192.448242
5989.820433	0.090157	0.542827	4276.835449
5989.821375	0.090161	0.542827	4361.767090
5989.822274	0.090201	0.542827	4442.858398
5989.823194	0.090216	0.542827	4525.857422
5989.824139	0.090223	0.542827	4611.118652
5989.825070	0.090198	0.542827	4695.092773
5989.825969	0.090223	0.542827	4776.203613
5989.826882	0.090223	0.542827	4858.577637
5989.827815	0.090183	0.542827	4942.718262
5990.843343	1.071229	0.508808	472.412079
5990.844313	1.542385	0.508808	1968.525757
5990.845242	1.526016	0.508808	3386.194336
5990.846142	0.815281	0.508808	4119.947266
5990.847062	0.098291	0.508808	4210.375000
5990.847982	0.090157	0.508808	4293.319824
5990.848905	0.090220	0.508808	4376.592773
5990.849801	0.090253	0.508808	4457.458984
5990.850719	0.090212	0.508808	4540.273926
5990.851662	0.090183	0.508808	4625.316406
5990.852578	0.090223	0.508808	4707.960937
5990.853470	0.090194	0.508808	4788.414062
5990.854418	0.090220	0.508808	4873.942383
5990.855354	0.090176	0.508808	4958.346680
5991.854577	1.086087	0.549913	509.374573
5991.855494	1.542008	0.549913	1923.395996
5991.856392	1.528074	0.549913	3295.606201
5991.857335	0.844534	0.549913	4092.001465
5991.858270	0.097760	0.549913	4183.407227
5991.859182	0.090227	0.549913	4265.694336
5991.860077	0.090260	0.549913	4346.477051
5991.861009	0.090231	0.549913	4430.572266
5991.861942	0.090253	0.549913	4514.777832
5991.862860	0.090179	0.549913	4597.562500
5991.863748	0.090242	0.549913	4677.697266
5991.864695	0.090128	0.549913	4763.048828
5991.865630	0.090264	0.549913	4847.445312
5991.866531	0.090253	0.549913	4928.763184
5992.876998	1.062755	0.502274	461.235718
5992.877943	1.540265	0.502274	1916.786011
5992.878857	1.527664	0.502274	3313.070557
5992.879765	0.875204	0.502274	4107.755859
5992.880653	0.101598	0.502274	4197.974609
5992.881608	0.090245	0.502274	4284.158691
5992.882500	0.090176	0.502274	4364.595703
5992.883405	0.090234	0.502274	4446.257812
5992.884296	0.090300	0.502274	4526.715332
5992.885251	0.090297	0.502274	4612.948730
5992.886162	0.090114	0.502274	4695.041992
5992.887064	0.090242	0.502274	4776.439941
5992.887996	0.090282	0.502274	4860.582520
5992.888897	0.090231	0.502274	4941.880371
5993.893332	1.081933	0.538477	482.542328
5993.894230	1.540529	0.538477	1865.937012
5993.895196	1.526774	0.538477	3340.800293
5993.896117	0.824381	0.538477	4100.055176
5993.897021	0.098306	0.538477	4188.923340
5993.897912	0.090187	0.538477	4269.279785
5993.898849	0.090286	0.538477	4353.877441
5993.899756	0.090154	0.538477	4435.646973
5993.900673	0.090187	0.538477	4518.348145
5993.901571	0.090165	0.538477	4599.315918
5993.902525	0.090179	0.538477	4685.347168
5993.903426	0.090176	0.538477	4766.595703
5993.904321	0.090275	0.538477	4847.391602
5993.905250	0.090308	0.538477	4931.287598
5994.910693	1.099307	0.485770	513.376221
5994.911604	1.542330	0.485770	1918.439209
5994.912559	1.526360	0.485770	3376.112793
5994.913481	0.786672	0.485770	4101.424805
5994.914400	0.096039	0.485770	4189.684570
5994.915289	0.090154	0.485770	4269.831543
5994.916240	0.090256	0.485770	4355.665527
5994.917163	0.090223	0.485770	4438.941895
5994.918053	0.090194	0.485770	4519.214844
5994.918997	0.090253	0.485770	4604.413574
5994.919918	0.090220	0.485770	4687.505859
5994.920837	0.090231	0.485770	4770.427734
5994.921730	0.090286	0.485770	4851.052734
5994.922670	0.090227	0.485770	4935.866211
5995.932626	1.078253	0.517263	480.900909
5995.933603	1.542374	0.517263	1987.800537
5995.934530	1.525547	0.517263	3401.982422
5995.935429	0.801508	0.517263	4122.537598
5995.936346	0.097709	0.517263	4212.136719
5995.937288	0.090264	0.517263	4297.165039
5995.938209	0.090179	0.517263	4380.220215
5995.939106	0.090245	0.517263	4461.170410
5995.940041	0.090183	0.517263	4545.491699
5995.940977	0.090172	0.517263	4629.892578
5995.941877	0.090297	0.517263	4711.159668
5995.942770	0.090205	0.517263	4791.712891
5995.943705	0.090223	0.517263	4876.071777
5995.944650	0.090128	0.517263	4961.242676
5996.943346	1.124663	0.492469	536.464233
5996.944287	1.543638	0.492469	1989.027344
5996.945217	1.525269	0.492469	3407.527100
5996.946118	0.789730	0.492469	4119.074219
5996.947076	0.095208	0.492469	4210.283203
5996.948016	0.090212	0.492469	4295.083008
5996.948912	0.090168	0.492469	4375.874023
5996.949841	0.090286	0.492469	4459.749512
5996.950783	0.090143	0.492469	4544.664062
5996.951698	0.090249	0.492469	4627.241699
5996.952585	0.090341	0.492469	4707.374023
5996.953522	0.090253	0.492469	4791.940918
5996.954458	0.090242	0.492469	4876.407227
5996.955373	0.090264	0.492469	4958.998535
5997.971428	1.097457	0.525409	500.440521
5997.972341	1.541920	0.525409	1908.213623
5997.973263	1.527839	0.525409	3316.881348
5997.974210	0.809630	0.525409	4083.601074
5997.975147	0.096489	0.525409	4174.011719
5997.976040	0.090282	0.525409	4254.633301
5997.976974	0.090201	0.525409	4338.881348
5997.977905	0.090209	0.525409	4422.865723
5997.978831	0.090227	0.525409	4506.416016
5997.979731	0.090293	0.525409	4587.679687
5997.980667	0.090289	0.525409	4672.190430
5997.981571	0.090458	0.525409	4753.964355
5997.982479	0.090223	0.525409	4835.887207
5997.983376	0.090311	0.525409	4916.896484
5998.976463	1.073599	0.515117	473.457001
5998.977422	1.541001	0.515117	1951.276978
5998.978333	1.527078	0.515117	3342.444580
5998.979238	0.854414	0.515117	4115.689453
5998.980125	0.100430	0.515117	4204.770508
5998.981069	0.090300	0.515117	4290.014160
5998.981972	0.090256	0.515117	4371.515625
5998.982868	0.090293	0.515117	4452.417969
5998.983771	0.090293	0.515117	4533.952637
5998.984704	0.090319	0.515117	4618.219727
5998.985609	0.090289	0.515117	4699.931641
5998.986504	0.090315	0.515117	4780.763672
5998.987444	0.090260	0.515117	4865.607910
5998.988351	0.090308	0.515117	4947.517090
6000.008156	1.080945	0.523802	477.777649
6000.009061	1.540616	0.523802	1872.035400
6000.009962	1.529110	0.523802	3249.763672
6000.010913	0.884821	0.523802	4091.228027
6000.011821	0.100214	0.523802	4182.222168
6000.012724	0.090231	0.523802	4263.700684
6000.013611	0.090231	0.523802	4343.735352
6000.014552	0.090267	0.523802	4428.676758
6000.015453	0.090253	0.523802	4509.994629
6000.016358	0.090238	0.523802	4591.660156
6000.017247	0.090282	0.523802	4671.920898
6000.018202	0.090326	0.523802	4758.182129
6000.019103	0.090223	0.523802	4839.473633
6000.019995	0.090245	0.523802	4919.972656
6001.012188	1.088199	0.522871	486.425171
6001.013095	1.540953	0.522871	1884.069946
6001.013990	1.528967	0.522871	3252.495605
6001.014965	0.836755	0.522871	4068.332031
6001.015861	0.099027	0.522871	4157.060547
6001.016775	0.090198	0.522871	4239.501465
6001.017674	0.090275	0.522871	4320.658203
6001.018632	0.090223	0.522871	4407.092285
6001.019533	0.090205	0.522871	4488.367187
6001.020427	0.090253	0.522871	4569.053223
6001.021353	0.090304	0.522871	4652.674805
6001.022264	0.090267	0.522871	4734.908203
6001.023182	0.090275	0.522871	4817.780273
6001.024075	0.090289	0.522871	4898.408691
6002.043850	1.067223	0.518617	465.309204
6002.044778	1.539598	0.518617	1894.056519
6002.045723	1.526620	0.518617	3336.712402
6002.046656	0.809454	0.518617	4091.933350
6002.047547	0.098145	0.518617	4179.379883
6002.048490	0.090139	0.518617	4264.381348
6002.049404	0.090209	0.518617	4346.832031
6002.050326	0.090245	0.518617	4430.038086
6002.051213	0.090201	0.518617	4510.046875
6002.052156	0.090154	0.518617	4595.062012
6002.053073	0.090278	0.518617	4677.847168
6002.053972	0.090220	0.518617	4758.954590
6002.054896	0.090209	0.518617	4842.307617
6002.055819	0.090264	0.518617	4925.621094
6003.050453	1.068633	0.523749	472.335724
6003.051344	1.539595	0.523749	1844.114502
6003.052311	1.526748	0.523749	3320.479980
6003.053245	0.824561	0.523749	4090.619629
6003.054141	0.098375	0.523749	4178.763672
6003.055083	0.090135	0.523749	4263.671387
6003.056000	0.090256	0.523749	4346.436523
6003.056921	0.090179	0.523749	4429.491699
6003.057811	0.090092	0.523749	4509.673340
6003.058770	0.090249	0.523749	4596.222168
6003.059692	0.090135	0.523749	4679.327148
6003.060582	0.090315	0.523749	4759.707520
6003.061518	0.090183	0.523749	4844.119141
6003.062430	0.090282	0.523749	4926.456543
6004.078537	1.074012	0.501444	471.491455
6004.079523	1.542744	0.501444	1992.637085
6004.080444	1.525389	0.501444	3397.520752
6004.081347	0.799288	0.501444	4119.278320
6004.082270	0.097137	0.501444	4208.936035
6004.083214	0.090084	0.501444	4293.975586
6004.084131	0.090220	0.501444	4376.707031
6004.085025	0.090216	0.501444	4457.360352
6004.085966	0.090179	0.501444	4542.219238
6004.086889	0.090212	0.501444	4625.485352
6004.087780	0.090194	0.501444	4705.848145
6004.088698	0.090132	0.501444	4788.589355
6004.089633	0.090223	0.501444	4872.948242
6004.090561	0.090205	0.501444	4956.658691
6005.088200	1.066644	0.503575	466.123566
6005.089147	1.540386	0.503575	1924.868774
6005.090086	1.525990	0.503575	3357.773437
6005.091016	0.790192	0.503575	4092.651611
6005.091910	0.097324	0.503575	4179.659668
6005.092862	0.090110	0.503575	4265.444336
6005.093803	0.090161	0.503575	4350.286133
6005.094708	0.090286	0.503575	4431.994629
6005.095627	0.090238	0.503575	4514.923340
6005.096564	0.090187	0.503575	4599.428223
6005.097473	0.090190	0.503575	4681.411133
6005.098362	0.090165	0.503575	4761.567871
6005.099310	0.090146	0.503575	4847.026855
6005.100236	0.090220	0.503575	4930.570312
6006.113292	1.108784	0.484086	558.827148
6006.114207	1.543755	0.484086	1971.362915
6006.115116	1.525950	0.484086	3358.451172
6006.116015	0.830405	0.484086	4104.985352
6006.116972	0.095768	0.484086	4196.635254
6006.117868	0.090271	0.484086	4277.518066
6006.118768	0.090245	0.484086	4358.738770
6006.119655	0.090297	0.484086	4438.832031
6006.120597	0.090297	0.484086	4523.891602
6006.121492	0.090194	0.484086	4604.615234
6006.122391	0.090260	0.484086	4685.758789
6006.123318	0.090256	0.484086	4769.426270
6006.124222	0.090308	0.484086	4851.064453
6006.125124	0.090223	0.484086	4932.445801
6007.125964	1.069175	0.488586	470.436890
6007.126937	1.542696	0.488586	1971.480591
6007.127854	1.526089	0.488586	3370.904053
6007.128754	0.829874	0.488586	4117.791016
6007.129681	0.098745	0.488586	4209.327637
6007.130596	0.090238	0.488586	4291.895508
6007.131509	0.090212	0.488586	4374.259277
6007.132410	0.090198	0.488586	4455.527344
6007.133334	0.090348	0.488586	4539.008789
6007.134232	0.090183	0.488586	4619.993164
6007.135131	0.090205	0.488586	4701.087402
6007.136020	0.090205	0.488586	4781.279785
6007.136970	0.090242	0.488586	4867.009277
6007.137875	0.090179	0.488586	4948.621582
6008.147426	1.096816	0.494866	499.051483
6008.148329	1.540810	0.494866	1890.403320
6008.149228	1.528780	0.494866	3264.776855
6008.150215	0.844142	0.494866	4097.944824
6008.151114	0.098031	0.494866	4186.074707
6008.152017	0.090114	0.494866	4267.447266
6008.152909	0.090212	0.494866	4347.916504
6008.153845	0.090264	0.494866	4432.403320
6008.154764	0.090161	0.494866	4515.261230
6008.155674	0.090187	0.494866	4597.331055
6008.156560	0.090190	0.494866	4677.239746
6008.157511	0.090234	0.494866	4763.052734
6008.158426	0.090168	0.494866	4845.556641
6008.159341	0.090267	0.494866	4928.151367
6009.163209	1.067769	0.481991	466.614868
6009.164161	1.542722	0.481991	1935.286377
6009.165082	1.526027	0.481991	3340.756836
6009.166014	0.811351	0.481991	4096.936035
6009.166901	0.098291	0.481991	4184.120117
6009.167863	0.090212	0.481991	4270.904297
6009.168757	0.090297	0.481991	4351.629395
6009.169646	0.090168	0.481991	4431.789062
6009.170590	0.090304	0.481991	4517.036133
6009.171483	0.090172	0.481991	4597.560059
6009.172398	0.090220	0.481991	4680.111328
6009.173300	0.090139	0.481991	4761.416992
6009.174235	0.090293	0.481991	4845.840820
6009.175147	0.090271	0.481991	4928.167969
6010.182106	1.095483	0.482906	496.253998
6010.183039	1.542319	0.482906	1935.237915
6010.183934	1.526993	0.482906	3301.896973
6010.184906	0.798842	0.482906	4078.371094
6010.185828	0.096610	0.482906	4167.445801
6010.186717	0.090110	0.482906	4247.553711
6010.187654	0.090227	0.482906	4332.096680
6010.188572	0.090216	0.482906	4414.915039
6010.189485	0.090264	0.482906	4497.325684
6010.190379	0.090212	0.482906	4577.975586
6010.191340	0.090231	0.482906	4664.687500
6010.192266	0.090154	0.482906	4748.169922
6010.193158	0.090249	0.482906	4828.671875
6010.194084	0.090209	0.482906	4912.205078
6011.199437	1.069578	0.481347	470.614136
6011.200333	1.539807	0.481347	1850.281250
6011.201313	1.526887	0.481347	3346.630859
6011.202250	0.801530	0.481347	4097.664062
6011.203141	0.097610	0.481347	4184.634277
6011.204097	0.090168	0.481347	4270.835449
6011.205011	0.090231	0.481347	4353.306152
6011.205938	0.090190	0.481347	4436.912598
6011.206834	0.090271	0.481347	4517.795410
6011.207775	0.090245	0.481347	4602.716309
6011.208692	0.090231	0.481347	4685.458008
6011.209612	0.090227	0.481347	4768.466797
6011.210502	0.090260	0.481347	4848.798340
6011.211453	0.090231	0.481347	4934.607910
6012.217291	1.081256	0.481907	476.833954
6012.218279	1.543209	0.481907	2001.524658
6012.219209	1.524899	0.481907	3419.680420
6012.220118	0.767161	0.481907	4117.029297
6012.221038	0.095742	0.481907	4205.112305
6012.221970	0.090271	0.481907	4289.245117
6012.222882	0.090231	0.481907	4371.535645
6012.223768	0.090220	0.481907	4451.470215
6012.224733	0.090183	0.481907	4538.497070
6012.225666	0.090245	0.481907	4622.695801
6012.226561	0.090242	0.481907	4703.461914
6012.227487	0.090220	0.481907	4787.005371
6012.228424	0.090260	0.481907	4871.579102
6012.229347	0.090249	0.481907	4954.878906
6013.235669	1.070497	0.481960	474.230072
6013.236570	1.540924	0.481960	1862.602661
6013.237501	1.528411	0.481960	3285.552734
6013.238449	0.845541	0.481960	4087.125488
6013.239370	0.097709	0.481960	4177.115234
6013.240265	0.090165	0.481960	4257.812500
6013.241220	0.090275	0.481960	4344.024902
6013.242158	0.090311	0.481960	4428.736816
6013.243079	0.090319	0.481960	4511.920410
6013.243971	0.090297	0.481960	4592.464844
6013.244916	0.090275	0.481960	4677.774414
6013.245837	0.090249	0.481960	4760.893555
6013.246741	0.090267	0.481960	4842.495117
6013.247649	0.090286	0.481960	4924.474609
6014.252532	1.116610	0.493186	528.156616
6014.253440	1.542118	0.493186	1928.399658
6014.254336	1.527213	0.493186	3296.782715
6014.255299	0.799995	0.493186	4067.177979
6014.256250	0.095995	0.493186	4158.469238
6014.257146	0.090216	0.493186	4239.302734
6014.258070	0.090220	0.493186	4322.665527
6014.258994	0.090234	0.493186	4406.041992
6014.259914	0.090267	0.493186	4489.087891
6014.260810	0.090289	0.493186	4569.987305
6014.261762	0.090198	0.493186	4655.855469
6014.262697	0.090267	0.493186	4740.255371
6014.263611	0.090315	0.493186	4822.803223
6014.264500	0.090198	0.493186	4902.989258
6015.271420	1.093740	0.476368	534.838989
6015.272353	1.542751	0.476368	1974.226074
6015.273275	1.525056	0.476368	3380.327881
6015.274184	0.791821	0.476368	4100.093262
6015.275128	0.095962	0.476368	4190.681152
6015.276070	0.090264	0.476368	4275.709473
6015.276969	0.090242	0.476368	4356.836914
6015.277891	0.090165	0.476368	4439.968750
6015.278819	0.090260	0.476368	4523.729980
6015.279748	0.090245	0.476368	4607.567871
6015.280640	0.090311	0.476368	4688.125488
6015.281574	0.090194	0.476368	4772.366699
6015.282512	0.090190	0.476368	4856.965332
6015.283441	0.090297	0.476368	4940.851074
6016.289764	1.073767	0.487567	484.268951
6016.290666	1.540415	0.487567	1873.723267
6016.291599	1.527667	0.487567	3299.036865
6016.292555	0.819672	0.487567	4082.643066
6016.293477	0.096577	0.487567	4171.687012
6016.294378	0.090135	0.487567	4252.898926
6016.295319	0.090286	0.487567	4337.857910
6016.296254	0.090267	0.487567	4422.257812
6016.297166	0.090275	0.487567	4504.588379
6016.298055	0.090216	0.487567	4584.790527
6016.298995	0.090267	0.487567	4669.641602
6016.299934	0.090238	0.487567	4754.375000
6016.300831	0.090242	0.487567	4835.321777
6016.301756	0.090308	0.487567	4918.856445
6017.306109	1.128047	0.487281	543.718567
6017.307012	1.542206	0.487281	1936.330322
6017.307905	1.527176	0.487281	3300.098877
6017.308867	0.807239	0.487281	4076.662598
6017.309817	0.096105	0.487281	4167.961914
6017.310717	0.090103	0.487281	4249.054199
6017.311649	0.090190	0.487281	4333.111816
6017.312590	0.090253	0.487281	4418.039551
6017.313515	0.090238	0.487281	4501.509766
6017.314414	0.090348	0.487281	4582.732422
6017.315348	0.090293	0.487281	4667.065918
6017.316250	0.090355	0.487281	4748.566406
6017.317155	0.090201	0.487281	4830.198730
6017.318049	0.090253	0.487281	4910.884766
6018.327005	1.095209	0.493065	501.605560
6018.327909	1.541331	0.493065	1894.968384
6018.328850	1.527374	0.493065	3332.227539
6018.329773	0.841018	0.493065	4108.487305
6018.330676	0.098687	0.493065	4197.601074
6018.331565	0.090150	0.493065	4277.744629
6018.332511	0.090264	0.493065	4363.134277
6018.333415	0.090322	0.493065	4444.785645
6018.334306	0.090223	0.493065	4525.174805
6018.335223	0.090234	0.493065	4607.919922
6018.336137	0.090315	0.493065	4690.467773
6018.337045	0.090165	0.493065	4772.337402
6018.337943	0.090256	0.493065	4853.387695
6018.338868	0.090256	0.493065	4936.875000
6019.341821	1.084365	0.485609	531.338989
6019.342735	1.543187	0.485609	1941.812134
6019.343655	1.526451	0.485609	3346.147461
6019.344561	0.831819	0.485609	4099.775391
6019.345489	0.097793	0.485609	4190.527344
6019.346398	0.090227	0.485609	4272.543945
6019.347302	0.090227	0.485609	4354.109375
6019.348190	0.090249	0.485609	4434.250488
6019.349141	0.090326	0.485609	4520.150391
6019.350047	0.090304	0.485609	4601.965820
6019.350945	0.090209	0.485609	4682.973145
6019.351883	0.090278	0.485609	4767.654297
6019.352784	0.090374	0.485609	4849.081055
6019.353677	0.090157	0.485609	4929.591797
6020.365254	1.074782	0.488542	467.529968
6020.366239	1.544062	0.488542	1988.431641
6020.367151	1.526268	0.488542	3380.388184
6020.368053	0.823132	0.488542	4122.853516
6020.369011	0.098068	0.488542	4216.802246
6020.369916	0.090311	0.488542	4298.534180
6020.370812	0.090249	0.488542	4379.397461
6020.371700	0.090278	0.488542	4459.564453
6020.372644	0.090264	0.488542	4544.773437
6020.373555	0.090300	0.488542	4627.037109
6020.374454	0.090216	0.488542	4708.141113
6020.375349	0.090238	0.488542	4788.904297
6020.376289	0.090264	0.488542	4873.751953
6020.377196	0.090216	0.488542	4955.578125
6021.375490	1.097322	0.491144	540.979614
6021.376407	1.543444	0.491144	1956.317505
6021.377306	1.526931	0.491144	3329.028564
6021.378205	0.862632	0.491144	4104.534668
6021.379143	0.100638	0.491144	4198.933594
6021.380061	0.090150	0.491144	4281.691406
6021.380959	0.090231	0.491144	4362.718750
6021.381852	0.090231	0.491144	4443.294922
6021.382789	0.090238	0.491144	4527.848145
6021.383693	0.090194	0.491144	4609.383789
6021.384617	0.090264	0.491144	4692.787598
6021.385509	0.090238	0.491144	4773.279785
6021.386456	0.090256	0.491144	4858.752441
6021.387353	0.090190	0.491144	4939.653320
6022.402507	1.070303	0.484976	469.862885
6022.403479	1.542510	0.484976	1969.182495
6022.404403	1.525862	0.484976	3379.078613
6022.405305	0.816273	0.484976	4115.356934
6022.406236	0.098243	0.484976	4206.821777
6022.407159	0.090125	0.484976	4290.006836
6022.408079	0.090161	0.484976	4372.955078
6022.408974	0.090190	0.484976	4453.675293
6022.409945	0.090209	0.484976	4541.268066
6022.410869	0.090154	0.484976	4624.570312
6022.411789	0.090253	0.484976	4707.602539
6022.412676	0.090176	0.484976	4787.588379
6022.413628	0.090165	0.484976	4873.425293
6022.414548	0.090165	0.484976	4956.376953
6023.409099	1.059653	0.505577	457.770203
6023.410033	1.539478	0.505577	1895.642334
6023.410970	1.527056	0.505577	3326.493408
6023.411901	0.827710	0.505577	4097.091309
6023.412789	0.099192	0.505577	4185.173828
6023.413744	0.090190	0.505577	4271.305664
6023.414687	0.090238	0.505577	4356.399902
6023.415579	0.090234	0.505577	4436.889160
6023.416498	0.090264	0.505577	4519.841309
6023.417427	0.090179	0.505577	4603.618164
6023.418363	0.090260	0.505577	4688.101562
6023.419263	0.090282	0.505577	4769.355469
6023.420182	0.090275	0.505577	4852.317871
6023.421117	0.090198	0.505577	4936.652832
6024.438744	1.095392	0.484046	495.117126
6024.439678	1.542631	0.484046	1935.934082
6024.440580	1.527107	0.484046	3313.384766
6024.441551	0.785826	0.484046	4076.422119
6024.442495	0.095420	0.484046	4166.498535
6024.443396	0.090234	0.484046	4247.799805
6024.444329	0.090198	0.484046	4331.954102
6024.445262	0.090095	0.484046	4416.012695
6024.446177	0.090293	0.484046	4498.630859
6024.447063	0.090194	0.484046	4578.542969
6024.447993	0.090242	0.484046	4662.467773
6024.448934	0.090168	0.484046	4747.316406
6024.449836	0.090231	0.484046	4828.704590
6024.450756	0.090289	0.484046	4911.770508
6025.443786	1.079077	0.500945	472.635773
6025.444764	1.543125	0.500945	1981.812012
6025.445693	1.525411	0.500945	3398.919189
6025.446591	0.810333	0.500945	4126.598633
6025.447517	0.097050	0.500945	4216.466309
6025.448452	0.090165	0.500945	4300.770508
6025.449383	0.090157	0.500945	4384.707031
6025.450276	0.090165	0.500945	4465.224121
6025.451210	0.090271	0.500945	4549.537109
6025.452124	0.090293	0.500945	4632.064941
6025.453033	0.090168	0.500945	4714.027832
6025.453932	0.090322	0.500945	4795.227539
6025.454869	0.090205	0.500945	4879.749512
6025.455778	0.090231	0.500945	4961.769043
6026.474975	1.093217	0.490266	491.947449
6026.475892	1.541422	0.490266	1905.431396
6026.476791	1.528297	0.490266	3279.370605
6026.477717	0.891885	0.490266	4105.255859
6026.478629	0.100397	0.490266	4196.817871
6026.479530	0.090187	0.490266	4278.076172
6026.480427	0.090157	0.490266	4358.947266
6026.481355	0.090264	0.490266	4442.711914
6026.482258	0.090275	0.490266	4524.229980
6026.483167	0.090121	0.490266	4606.149902
6026.484065	0.090286	0.490266	4687.226562
6026.484998	0.090304	0.490266	4771.479980
6026.485905	0.090190	0.490266	4853.282715
6026.486801	0.090114	0.490266	4934.024414
6027.479001	1.084182	0.487273	481.376862
6027.479912	1.540906	0.487273	1885.142090
6027.480807	1.528876	0.487273	3253.485840
6027.481759	0.866664	0.487273	4078.549805
6027.482677	0.099573	0.487273	4169.957520
6027.483581	0.090168	0.487273	4251.469727
6027.484469	0.090231	0.487273	4331.594727
6027.485423	0.090297	0.487273	4417.737793
6027.486323	0.090220	0.487273	4498.935547
6027.487216	0.090260	0.487273	4579.537598
6027.488154	0.090249	0.487273	4664.191406
6027.489057	0.090231	0.487273	4745.669922
6027.489958	0.090165	0.487273	4826.908203
6027.490844	0.090256	0.487273	4906.875488
6028.510681	1.081304	0.493742	486.586670
6028.511581	1.540800	0.493742	1873.306274
6028.512548	1.526788	0.493742	3349.710449
6028.513456	0.834170	0.493742	4107.136719
6028.514377	0.098031	0.493742	4197.423340
6028.515265	0.090157	0.493742	4277.483398
6028.516199	0.090220	0.493742	4361.748535
6028.517124	0.090282	0.493742	4445.259277
6028.518022	0.090238	0.493742	4526.292969
6028.518956	0.090286	0.493742	4610.619629
6028.519877	0.090267	0.493742	4693.755859
6028.520791	0.090256	0.493742	4776.250000
6028.521684	0.090275	0.493742	4856.865234
6028.522658	0.090264	0.493742	4944.782227
6029.516767	1.084274	0.482580	489.007446
6029.517671	1.540895	0.482580	1881.976318
6029.518564	1.528162	0.482580	3246.624512
6029.519540	0.844548	0.482580	4070.903809
6029.520458	0.097998	0.482580	4160.866211
6029.521355	0.090223	0.482580	4241.796387
6029.522299	0.090238	0.482580	4326.980957
6029.523213	0.090238	0.482580	4409.458496
6029.524130	0.090227	0.482580	4492.196777
6029.525027	0.090319	0.482580	4573.212402
6029.525936	0.090216	0.482580	4655.218750
6029.526878	0.090267	0.482580	4740.250488
6029.527797	0.090209	0.482580	4823.152344
6029.528688	0.090267	0.482580	4903.580566
6030.545354	1.063436	0.496651	464.721649
6030.546338	1.542239	0.496651	1982.284546
6030.547274	1.526565	0.496651	3411.149414
6030.548175	0.788207	0.496651	4121.323730
6030.549091	0.097416	0.496651	4210.556641
6030.550032	0.090201	0.496651	4295.436035
6030.550969	0.090165	0.496651	4379.920410
6030.551865	0.090271	0.496651	4460.803223
6030.552781	0.090231	0.496651	4543.454590
6030.553712	0.090238	0.496651	4627.466309
6030.554648	0.090194	0.496651	4711.888184
6030.555545	0.090245	0.496651	4792.838379
6030.556464	0.090238	0.496651	4875.767090
6030.557399	0.090194	0.496651	4960.098633
6031.556597	1.086134	0.475260	519.172058
6031.557509	1.542722	0.475260	1926.134766
6031.558445	1.525796	0.475260	3354.279785
6031.559348	0.830255	0.475260	4104.000000
6031.560315	0.096478	0.475260	4197.294434
6031.561254	0.090198	0.475260	4281.990234
6031.562152	0.090179	0.475260	4362.971191
6031.563074	0.090253	0.475260	4446.184082
6031.564004	0.090165	0.475260	4530.037109
6031.564936	0.090187	0.475260	4614.091309
6031.565835	0.090198	0.475260	4695.179199
6031.566754	0.090161	0.475260	4778.037109
6031.567696	0.090242	0.475260	4863.044922
6031.568618	0.090205	0.475260	4946.213867
6032.579031	1.087720	0.494322	491.649353
6032.579930	1.540701	0.494322	1876.739258
6032.580883	1.526895	0.494322	3331.869629
6032.581797	0.843018	0.494322	4102.387695
6032.582692	0.099386	0.494322	4191.338379
6032.583579	0.090176	0.494322	4271.324219
6032.584534	0.090319	0.494322	4357.578613
6032.585436	0.090267	0.494322	4438.999512
6032.586327	0.090190	0.494322	4519.359375
6032.587260	0.090297	0.494322	4603.605957
6032.588163	0.090278	0.494322	4685.127441
6032.589059	0.090212	0.494322	4765.957520
6032.589948	0.090209	0.494322	4846.153320
6032.590899	0.090267	0.494322	4931.997559
6033.596359	1.067684	0.448766	464.442657
6033.597322	1.540979	0.448766	1948.405396
6033.598250	1.525814	0.448766	3364.360840
6033.599162	0.812699	0.448766	4105.542480
6033.600058	0.097958	0.448766	4193.312500
6033.601001	0.090154	0.448766	4278.327637
6033.601905	0.090264	0.448766	4359.925781
6033.602802	0.090194	0.448766	4440.830078
6033.603689	0.090278	0.448766	4520.906738
6033.604617	0.090352	0.448766	4604.752930
6033.605529	0.090223	0.448766	4687.036621
6033.606432	0.090242	0.448766	4768.524902
6033.607326	0.090275	0.448766	4849.230469
6033.608275	0.090253	0.448766	4934.880371
6034.611661	1.075624	0.507394	468.971954
6034.612567	1.540162	0.507394	1864.359009
6034.613505	1.527587	0.507394	3297.235352
6034.614413	0.873212	0.507394	4090.111572
6034.615367	0.098075	0.507394	4183.675293
6034.616266	0.090187	0.507394	4264.753418
6034.617154	0.090278	0.507394	4344.920410
6034.618102	0.090282	0.507394	4430.507812
6034.619000	0.090209	0.507394	4511.515137
6034.619921	0.090223	0.507394	4594.610840
6034.620819	0.090165	0.507394	4675.578613
6034.621765	0.090176	0.507394	4760.884766
6034.622667	0.090168	0.507394	4842.216797
6034.623563	0.090234	0.507394	4923.066895
6035.634641	1.083570	0.446357	478.938141
6035.635616	1.542832	0.446357	1983.199341
6035.636548	1.525041	0.446357	3404.538086
6035.637449	0.799519	0.446357	4124.904785
6035.638393	0.097236	0.446357	4216.695801
6035.639286	0.090128	0.446357	4297.180176
6035.640204	0.090242	0.446357	4380.021973
6035.641104	0.090238	0.446357	4461.236328
6035.642038	0.090249	0.446357	4545.528809
6035.642960	0.090260	0.446357	4628.748535
6035.643855	0.090227	0.446357	4709.501953
6035.644762	0.090165	0.446357	4791.281250
6035.645698	0.090223	0.446357	4875.730469
6035.646620	0.090256	0.446357	4958.946777
6036.644816	1.068395	0.502592	470.093689
6036.645773	1.541649	0.502592	1945.451904
6036.646722	1.524730	0.502592	3392.420898
6036.647655	0.759155	0.502592	4100.712891
6036.648542	0.096306	0.502592	4186.136230
6036.649488	0.090216	0.502592	4271.480469
6036.650426	0.090209	0.502592	4356.096191
6036.651327	0.090205	0.502592	4437.371094
6036.652244	0.090205	0.502592	4520.089355
6036.653190	0.090201	0.502592	4605.419922
6036.654109	0.090322	0.502592	4688.426270
6036.654997	0.090253	0.502592	4768.570801
6036.655945	0.090190	0.502592	4854.071289
6036.656885	0.090216	0.502592	4938.874512
6037.670378	1.112311	0.448911	518.336792
6037.671289	1.542052	0.448911	1923.146240
6037.672204	1.527136	0.448911	3320.475830
6037.673157	0.801134	0.448911	4083.956543
6037.674098	0.096218	0.448911	4174.498047
6037.674989	0.090220	0.448911	4254.883789
6037.675921	0.090154	0.448911	4338.907227
6037.676845	0.090146	0.448911	4422.202637
6037.677762	0.090209	0.448911	4504.923828
6037.678651	0.090187	0.448911	4585.100098
6037.679603	0.090242	0.448911	4671.010254
6037.680539	0.090220	0.448911	4755.456055
6037.681437	0.090300	0.448911	4836.545898
6037.682357	0.090223	0.448911	4919.551270
6038.679545	1.115336	0.499567	542.053162
6038.680484	1.542964	0.499567	1990.896240
6038.681413	1.524701	0.499567	3407.343262
6038.682318	0.776679	0.499567	4110.237305
6038.683269	0.095427	0.499567	4200.988770
6038.684207	0.090256	0.499567	4285.649414
6038.685096	0.090267	0.499567	4365.896973
6038.686014	0.090234	0.499567	4448.731934
6038.686952	0.090275	0.499567	4533.409668
6038.687871	0.090399	0.499567	4616.486328
6038.688771	0.090201	0.499567	4697.667480
6038.689726	0.090260	0.499567	4783.865723
6038.690665	0.090271	0.499567	4868.630371
6038.691563	0.090271	0.499567	4949.693848
6039.708116	1.082695	0.437148	487.212860
6039.709014	1.540660	0.437148	1870.725952
6039.709959	1.527667	0.437148	3314.371582
6039.710888	0.843904	0.437148	4098.358398
6039.711786	0.099500	0.437148	4187.708984
6039.712672	0.090260	0.437148	4267.679199
6039.713626	0.090297	0.437148	4353.822266
6039.714524	0.090377	0.437148	4434.980957
6039.715422	0.090326	0.437148	4516.093750
6039.716316	0.090264	0.437148	4596.789551
6039.717259	0.090355	0.437148	4681.994629
6039.718165	0.090245	0.437148	4763.756836
6039.719062	0.090282	0.437148	4844.739746
6039.719989	0.090377	0.437148	4928.519531
6040.714188	1.072727	0.503273	469.854401
6040.715094	1.540052	0.503273	1865.141846
6040.715993	1.530040	0.503273	3240.647949
6040.716965	0.865565	0.503273	4081.977295
6040.717869	0.100155	0.503273	4172.517578
6040.718766	0.090198	0.503273	4253.424805
6040.719652	0.090234	0.503273	4333.372559
6040.720578	0.090396	0.503273	4417.078613
6040.721490	0.090293	0.503273	4499.425781
6040.722388	0.090256	0.503273	4580.476074
6040.723278	0.090337	0.503273	4660.875977
6040.724225	0.090264	0.503273	4746.355469
6040.725132	0.090289	0.503273	4828.248047
6040.726022	0.090275	0.503273	4908.592285
6041.743879	1.095985	0.442119	541.416626
6041.744792	1.543769	0.442119	1950.878174
6041.745712	1.526323	0.442119	3355.095459
6041.746623	0.821547	0.442119	4103.524414
6041.747598	0.094885	0.442119	4196.037598
6041.748507	0.090157	0.442119	4277.990723
6041.749423	0.090238	0.442119	4360.648926
6041.750314	0.090242	0.442119	4441.054199
6041.751264	0.090135	0.442119	4526.683105
6041.752165	0.090157	0.442119	4607.915039
6041.753081	0.090260	0.442119	4690.593262
6041.753977	0.090183	0.442119	4771.397461
6041.754924	0.090216	0.442119	4856.832031
6041.755846	0.090168	0.442119	4939.967285
6042.749894	1.063744	0.492292	461.664886
6042.750854	1.539950	0.492292	1940.016846
6042.751774	1.526298	0.492292	3344.210449
6042.752717	0.793967	0.492292	4092.921631
6042.753604	0.097588	0.492292	4179.481934
6042.754557	0.090059	0.492292	4265.307617
6042.755454	0.090081	0.492292	4346.109863
6042.756379	0.090179	0.492292	4429.525879
6042.757269	0.090143	0.492292	4509.752930
6042.758208	0.090209	0.492292	4594.458984
6042.759131	0.090146	0.492292	4677.664062
6042.760023	0.090168	0.492292	4758.094238
6042.760959	0.090256	0.492292	4842.574219
6042.761873	0.090135	0.492292	4924.958008
6043.780054	1.071577	0.448786	472.565552
6043.780950	1.540100	0.448786	1852.495239
6043.781924	1.527187	0.448786	3339.975830
6043.782859	0.807045	0.448786	4094.562500
6043.783786	0.096530	0.448786	4184.045410
6043.784677	0.090110	0.448786	4264.333496
6043.785613	0.090139	0.448786	4348.703613
6043.786553	0.090139	0.448786	4433.434570
6043.787452	0.090121	0.448786	4514.453125
6043.788365	0.090194	0.448786	4596.800293
6043.789304	0.090183	0.448786	4681.482422
6043.790219	0.090132	0.448786	4763.953125
6043.791114	0.090128	0.448786	4844.617676
6043.792051	0.090099	0.448786	4929.040527
6044.785655	1.091396	0.493766	515.139099
6044.786582	1.542927	0.493766	1945.432617
6044.787490	1.526770	0.493766	3331.739746
6044.788421	0.821957	0.493766	4096.981445
6044.789367	0.096497	0.493766	4188.267090
6044.790287	0.090150	0.493766	4271.205078
6044.791177	0.090081	0.493766	4351.376953
6044.792119	0.090117	0.493766	4436.267578
6044.793054	0.090084	0.493766	4520.496094
6044.793950	0.090135	0.493766	4601.257324
6044.794867	0.090092	0.493766	4683.871094
6044.795786	0.090143	0.493766	4766.712402
6044.796726	0.090048	0.493766	4851.356934
6044.797624	0.090066	0.493766	4932.236328
6045.816323	1.128109	0.443936	550.517212
6045.817226	1.542814	0.443936	1943.677979
6045.818130	1.527393	0.443936	3324.440918
6045.819042	0.842406	0.443936	4092.715088
6045.819982	0.097196	0.443936	4184.079590
6045.820887	0.090084	0.443936	4265.605957
6045.821786	0.090168	0.443936	4346.667480
6045.822713	0.090216	0.443936	4430.297852
6045.823618	0.090289	0.443936	4512.009766
6045.824513	0.090161	0.443936	4592.704102
6045.825401	0.090297	0.443936	4672.887695
6045.826351	0.090304	0.443936	4758.676270
6045.827246	0.090231	0.443936	4839.432617
6045.828151	0.090275	0.443936	4921.131348
6046.823378	1.076946	0.482854	472.779205
6046.824277	1.540239	0.482854	1857.454346
6046.825175	1.529612	0.482854	3231.045898
6046.826134	0.886659	0.482854	4081.351807
6046.827040	0.100704	0.482854	4172.589844
6046.827947	0.090172	0.482854	4254.375977
6046.828833	0.090205	0.482854	4334.297852
6046.829781	0.090282	0.482854	4419.885254
6046.830686	0.090172	0.482854	4501.491211
6046.831581	0.090212	0.482854	4582.231445
6046.832524	0.090260	0.482854	4667.346680
6046.833422	0.090198	0.482854	4748.344238
6046.834324	0.090223	0.482854	4829.725586
6046.835215	0.090220	0.482854	4910.111328
6047.851983	1.071284	0.453656	470.293762
6047.852951	1.541166	0.453656	1962.142090
6047.853869	1.526404	0.453656	3363.380859
6047.854776	0.828512	0.453656	4114.841309
6047.855662	0.099023	0.453656	4202.576172
6047.856598	0.090234	0.453656	4287.035645
6047.857506	0.090132	0.453656	4368.875488
6047.858400	0.090209	0.453656	4449.521973
6047.859307	0.090264	0.453656	4531.391113
6047.860250	0.090238	0.453656	4616.485352
6047.861150	0.090249	0.453656	4697.709473
6047.862038	0.090238	0.453656	4777.840820
6047.862982	0.090212	0.453656	4863.001465
6047.863889	0.090220	0.453656	4944.830566
6048.859083	1.067260	0.497682	465.325165
6048.860049	1.541243	0.497682	1954.165649
6048.860960	1.526349	0.497682	3344.669434
6048.861891	0.806382	0.497682	4095.410889
6048.862790	0.097654	0.497682	4183.201660
6048.863745	0.090165	0.497682	4269.309082
6048.864652	0.090125	0.497682	4351.052246
6048.865543	0.090168	0.497682	4431.392578
6048.866471	0.090220	0.497682	4515.116699
6048.867383	0.090242	0.497682	4597.416992
6048.868284	0.090198	0.497682	4678.685059
6048.869174	0.090205	0.497682	4758.967773
6048.870129	0.090209	0.497682	4845.117187
6048.871021	0.090121	0.497682	4925.504883
6049.887234	1.133236	0.442522	549.619568
6049.888146	1.542850	0.442522	1956.698975
6049.889077	1.525968	0.442522	3377.375000
6049.889986	0.796787	0.442522	4101.654297
6049.890941	0.095153	0.442522	4192.524902
6049.891856	0.090205	0.442522	4275.062500
6049.892748	0.090220	0.442522	4355.538574
6049.893703	0.090227	0.442522	4441.705566
6049.894614	0.090234	0.442522	4523.909180
6049.895533	0.090249	0.442522	4606.848145
6049.896420	0.090242	0.442522	4686.892578
6049.897338	0.090143	0.442522	4769.643555
6049.898266	0.090212	0.442522	4853.360840
6049.899182	0.090253	0.442522	4936.032227
6050.896848	1.077869	0.486314	481.807251
6050.897824	1.542052	0.486314	1986.849976
6050.898756	1.525181	0.486314	3408.318359
6050.899655	0.787734	0.486314	4116.491699
6050.900587	0.097233	0.486314	4207.112305
6050.901526	0.090146	0.486314	4291.759766
6050.902444	0.090187	0.486314	4374.551270
6050.903343	0.090234	0.486314	4455.671875
6050.904268	0.090220	0.486314	4539.125000
6050.905200	0.090216	0.486314	4623.206543
6050.906123	0.090154	0.486314	4706.418457
6050.907014	0.090070	0.486314	4786.670410
6050.907961	0.090048	0.486314	4871.945312
6050.908899	0.090172	0.486314	4956.526855
6051.921891	1.097223	0.438735	504.722534
6051.922834	1.543066	0.438735	1959.834106
6051.923740	1.526334	0.438735	3342.692871
6051.924705	0.762382	0.438735	4078.391113
6051.925642	0.095054	0.438735	4167.456543
6051.926544	0.090297	0.438735	4248.904297
6051.927468	0.090227	0.438735	4332.273926
6051.928405	0.090198	0.438735	4416.789062
6051.929333	0.090205	0.438735	4500.499512
6051.930231	0.090234	0.438735	4581.529785
6051.931138	0.090165	0.438735	4663.309082
6051.932065	0.090223	0.438735	4746.946289
6051.932997	0.090198	0.438735	4831.010742
6051.933898	0.090205	0.438735	4912.285645
6052.934651	1.127838	0.493098	548.129333
6052.935598	1.543286	0.493098	2009.621338
6052.936534	1.524525	0.493098	3436.576904
6052.937433	0.758156	0.493098	4118.158691
6052.938403	0.094548	0.493098	4209.870605
6052.939343	0.090220	0.493098	4294.677246
6052.940253	0.090260	0.493098	4376.813965
6052.941152	0.090220	0.493098	4457.921387
6052.942097	0.090377	0.493098	4543.327637
6052.942999	0.090271	0.493098	4624.751953
6052.943900	0.090253	0.493098	4706.069824
6052.944786	0.090267	0.493098	4786.046875
6052.945735	0.090348	0.493098	4871.787109
6052.946639	0.090187	0.493098	4953.315918
6053.956567	1.080798	0.431158	482.036072
6053.957469	1.541034	0.431158	1872.048584
6053.958417	1.527938	0.431158	3320.534180
6053.959344	0.842212	0.431158	4101.264648
6053.960240	0.099192	0.431158	4190.140625
6053.961128	0.090220	0.431158	4270.255859
6053.962078	0.090249	0.431158	4355.992187
6053.962975	0.090330	0.431158	4437.018066
6053.963872	0.090256	0.431158	4517.978027
6053.964758	0.090253	0.431158	4597.941895
6053.965708	0.090319	0.431158	4683.744629
6053.966607	0.090245	0.431158	4764.875000
6053.967506	0.090293	0.431158	4846.048340
6053.968434	0.090249	0.431158	4929.799316
6054.973398	1.082131	0.479107	485.876953
6054.974309	1.541342	0.479107	1890.039062
6054.975218	1.528081	0.479107	3279.064697
6054.976180	0.830728	0.479107	4078.224609
6054.977074	0.098895	0.479107	4166.637207
6054.977963	0.090209	0.479107	4246.833008
6054.978913	0.090337	0.479107	4332.653320
6054.979816	0.090238	0.479107	4414.138184
6054.980726	0.090289	0.479107	4496.301270
6054.981618	0.090293	0.479107	4576.842773
6054.982554	0.090352	0.479107	4661.411621
6054.983453	0.090256	0.479107	4742.552246
6054.984378	0.090260	0.479107	4826.042969
6054.985271	0.090260	0.479107	4906.645020
6055.989721	1.082428	0.439444	488.175018
6055.990643	1.541722	0.439444	1909.643066
6055.991546	1.528187	0.439444	3289.596191
6055.992515	0.829105	0.439444	4092.999023
6055.993427	0.097716	0.439444	4182.116211
6055.994345	0.090095	0.439444	4264.823730
6055.995236	0.090190	0.439444	4345.183594
6055.996183	0.090125	0.439444	4430.531738
6055.997085	0.090172	0.439444	4511.867187
6055.998000	0.090216	0.439444	4594.415039
6055.998897	0.090205	0.439444	4675.329102
6055.999851	0.090135	0.439444	4761.318359
6056.000751	0.090161	0.439444	4842.463379
6056.001638	0.090201	0.439444	4922.472168
6057.011663	1.073372	0.462583	473.356903
6057.012591	1.539697	0.462583	1902.195923
6057.013537	1.526232	0.462583	3346.011230
6057.014482	0.793843	0.462583	4096.192871
6057.015369	0.097214	0.462583	4182.421875
6057.016314	0.090176	0.462583	4267.638184
6057.017229	0.090128	0.462583	4350.105469
6057.018149	0.090176	0.462583	4433.067383
6057.019043	0.090143	0.462583	4513.655273
6057.019995	0.090165	0.462583	4599.492187
6057.020915	0.090110	0.462583	4682.393066
6057.021842	0.090150	0.462583	4765.962402
6057.022733	0.090194	0.462583	4846.325195
6057.023680	0.090212	0.462583	4931.756348
6058.022858	1.067120	0.435372	469.532990
6058.023833	1.541609	0.435372	1972.601685
6058.024762	1.525598	0.435372	3389.882324
6058.025697	0.765374	0.435372	4105.506836
6058.026586	0.096365	0.435372	4191.175293
6058.027520	0.090125	0.435372	4275.351562
6058.028458	0.090194	0.435372	4359.953613
6058.029368	0.090216	0.435372	4442.050293
6058.030263	0.090187	0.435372	4522.767578
6058.031214	0.090216	0.435372	4608.562988
6058.032144	0.090154	0.435372	4692.406250
6058.033041	0.090216	0.435372	4773.330078
6058.033966	0.090194	0.435372	4856.759766
6058.034900	0.090245	0.435372	4941.048828
6059.050445	1.072174	0.464952	470.684418
6059.051389	1.540895	0.464952	1925.289062
6059.052306	1.527166	0.464952	3325.699707
6059.053216	0.859442	0.464952	4107.791992
6059.054102	0.100605	0.464952	4196.928223
6059.055047	0.090333	0.464952	4282.292969
6059.055943	0.090278	0.464952	4363.182129
6059.056843	0.090245	0.464952	4444.402832
6059.057746	0.090234	0.464952	4525.884277
6059.058683	0.090388	0.464952	4610.578125
6059.059593	0.090176	0.464952	4692.638184
6059.060492	0.090231	0.464952	4773.755371
6059.061432	0.090231	0.464952	4858.572266
6059.062328	0.090205	0.464952	4939.395996
6060.056525	1.068223	0.453810	468.949738
6060.057417	1.539536	0.453810	1842.215942
6060.058372	1.527872	0.453810	3301.333984
6060.059283	0.876658	0.453810	4099.969238
6060.060184	0.100485	0.453810	4190.505859
6060.061109	0.090154	0.453810	4273.897949
6060.062014	0.090212	0.453810	4355.540039
6060.062919	0.090212	0.453810	4437.182129
6060.063820	0.090183	0.453810	4518.437012
6060.064748	0.090322	0.453810	4602.255859
6060.065652	0.090326	0.453810	4683.910645
6060.066556	0.090161	0.453810	4765.416504
6060.067445	0.090249	0.453810	4845.647949
6060.068384	0.090238	0.453810	4930.381348
6061.086160	1.080623	0.473101	483.038269
6061.087062	1.540422	0.473101	1872.499268
6061.087962	1.528894	0.473101	3248.503906
6061.088924	0.858977	0.473101	4074.839844
6061.089830	0.099792	0.473101	4165.251953
6061.090755	0.090176	0.473101	4248.664551
6061.091643	0.090187	0.473101	4328.750488
6061.092577	0.090161	0.473101	4412.960937
6061.093479	0.090183	0.473101	4494.306152
6061.094372	0.090190	0.473101	4574.846191
6061.095307	0.090245	0.473101	4659.225586
6061.096209	0.090139	0.473101	4740.531250
6061.097128	0.090190	0.473101	4823.416016
6061.098015	0.090271	0.473101	4903.486328
6062.091218	1.076312	0.450708	476.806335
6062.092119	1.539906	0.450708	1864.261719
6062.093117	1.525316	0.450708	3386.527344
6062.094048	0.768593	0.450708	4102.086914
6062.094937	0.096628	0.450708	4187.989746
6062.095880	0.090216	0.450708	4273.063477
6062.096797	0.090176	0.450708	4355.754883
6062.097719	0.090227	0.450708	4438.944336
6062.098615	0.090264	0.450708	4519.820801
6062.099563	0.090216	0.450708	4605.345703
6062.100483	0.090212	0.450708	4688.341309
6062.101370	0.090209	0.450708	4768.356445
6062.102306	0.090278	0.450708	4852.856934
6062.103230	0.090231	0.450708	4936.229980
6063.122381	1.064788	0.463764	468.506500
6063.123352	1.541814	0.463764	1965.607788
6063.124290	1.524467	0.463764	3395.557373
6063.125221	0.752626	0.463764	4096.251953
6063.126123	0.095889	0.463764	4182.743652
6063.127063	0.090139	0.463764	4267.474609
6063.127999	0.090245	0.463764	4351.944336
6063.128896	0.090179	0.463764	4432.835449
6063.129816	0.090223	0.463764	4515.840820
6063.130757	0.090190	0.463764	4600.709961
6063.131671	0.090201	0.463764	4683.154297
6063.132562	0.090271	0.463764	4763.585937
6063.133512	0.090271	0.463764	4849.343262
6063.134451	0.090231	0.463764	4934.069824
6064.127467	1.093195	0.462889	502.869507
6064.128379	1.541814	0.462889	1909.003906
6064.129275	1.528096	0.462889	3278.177734
6064.130213	0.862017	0.462889	4086.749268
6064.131170	0.097614	0.462889	4180.165527
6064.132088	0.090150	0.462889	4262.923340
6064.132973	0.090201	0.462889	4342.751465
6064.133921	0.090110	0.462889	4428.175781
6064.134854	0.090231	0.462889	4512.360840
6064.135754	0.090194	0.462889	4593.535645
6064.136675	0.090172	0.462889	4676.583984
6064.137618	0.090198	0.462889	4761.640625
6064.138525	0.090238	0.462889	4843.486328
6064.139422	0.090216	0.462889	4924.410156
6065.157627	1.126168	0.460956	538.308411
6065.158545	1.542836	0.460956	1954.631592
6065.159461	1.526444	0.460956	3352.854492
6065.160368	0.823777	0.460956	4100.020020
6065.161323	0.096152	0.460956	4191.845703
6065.162225	0.090128	0.460956	4273.141113
6065.163118	0.090253	0.460956	4353.736816
6065.164060	0.090245	0.460956	4438.748047
6065.164967	0.090308	0.460956	4520.657227
6065.165862	0.090223	0.460956	4601.407227
6065.166756	0.090223	0.460956	4682.066895
6065.167681	0.090341	0.460956	4765.631836
6065.168582	0.090311	0.460956	4847.002441
6065.169485	0.090319	0.460956	4928.560059
6066.165200	1.073287	0.446272	471.173157
6066.166099	1.539946	0.446272	1855.584717
6066.166997	1.529799	0.446272	3229.343750
6066.167962	0.874779	0.446272	4073.505615
6066.168878	0.099781	0.446272	4164.905273
6066.169781	0.090146	0.446272	4246.307617
6066.170674	0.090286	0.446272	4326.932617
6066.171628	0.090344	0.446272	4413.121094
6066.172536	0.090231	0.446272	4495.050781
6066.173425	0.090319	0.446272	4575.344238
6066.174371	0.090319	0.446272	4660.785645
6066.175276	0.090293	0.446272	4742.500977
6066.176167	0.090308	0.446272	4822.964844
6066.177057	0.090326	0.446272	4903.354980
6067.192826	1.093839	0.442514	523.948914
6067.193738	1.542726	0.442514	1930.914795
6067.194631	1.527601	0.442514	3295.062744
6067.195602	0.801306	0.442514	4073.130859
6067.196531	0.096226	0.442514	4162.524414
6067.197422	0.090209	0.442514	4242.900391
6067.198346	0.090154	0.442514	4326.202637
6067.199262	0.090201	0.442514	4408.827148
6067.200182	0.090238	0.442514	4491.846191
6067.201074	0.090220	0.442514	4572.322266
6067.202009	0.090260	0.442514	4656.715332
6067.202929	0.090223	0.442514	4739.720703
6067.203856	0.090231	0.442514	4823.364746
6067.204747	0.090231	0.442514	4903.760254
6068.200918	1.080377	0.443151	486.169739
6068.201814	1.540170	0.443151	1866.161865
6068.202783	1.526547	0.443151	3345.385498
6068.203744	0.772841	0.443151	4088.085449
6068.204636	0.096171	0.443151	4173.869629
6068.205557	0.090143	0.443151	4256.891113
6068.206496	0.090183	0.443151	4341.573242
6068.207421	0.090234	0.443151	4425.040039
6068.208321	0.090194	0.443151	4506.214844
6068.209274	0.090238	0.443151	4592.211914
6068.210212	0.090176	0.443151	4676.796875
6068.211108	0.090205	0.443151	4757.620605
6068.212027	0.090190	0.443151	4840.505859
6068.212960	0.090234	0.443151	4924.694336
6069.227508	1.094216	0.441237	517.564331
6069.228415	1.542173	0.441237	1916.315186
6069.229349	1.526799	0.441237	3342.345703
6069.230301	0.809114	0.441237	4112.622070
6069.231234	0.096262	0.441237	4202.434570
6069.232125	0.090190	0.441237	4282.794434
6069.233070	0.090209	0.441237	4368.041504
6069.234004	0.090223	0.441237	4452.310059
6069.234922	0.090234	0.441237	4535.145020
6069.235816	0.090198	0.441237	4615.781738
6069.236739	0.090176	0.441237	4699.014160
6069.237672	0.090205	0.441237	4783.175293
6069.238596	0.090300	0.441237	4866.612793
6069.239483	0.090253	0.441237	4946.666992
6070.239693	1.073533	0.433043	473.427917
6070.240670	1.543594	0.433043	1981.519043
6070.241583	1.526078	0.433043	3374.828125
6070.242484	0.829497	0.433043	4122.205078
6070.243423	0.098921	0.433043	4215.091797
6070.244320	0.090275	0.433043	4296.068359
6070.245232	0.090245	0.433043	4378.372070
6070.246130	0.090308	0.433043	4459.468262
6070.247060	0.090242	0.433043	4543.393066
6070.247963	0.090260	0.433043	4624.897949
6070.248866	0.090275	0.433043	4706.416016
6070.249757	0.090267	0.433043	4786.844238
6070.250707	0.090326	0.433043	4872.653809
6070.251611	0.090216	0.433043	4954.208984
6071.262688	1.096329	0.439191	505.407837
6071.263582	1.540964	0.439191	1883.029907
6071.264528	1.526873	0.439191	3327.451172
6071.265452	0.829373	0.439191	4093.791504
6071.266371	0.097482	0.439191	4183.376953
6071.267266	0.090157	0.439191	4264.067871
6071.268222	0.090267	0.439191	4350.363281
6071.269123	0.090165	0.439191	4431.601562
6071.270013	0.090256	0.439191	4511.929687
6071.270946	0.090297	0.439191	4596.176270
6071.271861	0.090271	0.439191	4678.774414
6071.272781	0.090278	0.439191	4761.830566
6071.273666	0.090267	0.439191	4841.717285
6071.274601	0.090271	0.439191	4926.120605
6072.275410	1.082432	0.432343	484.929382
6072.276353	1.542587	0.432343	1939.588623
6072.277254	1.527506	0.432343	3315.871582
6072.278226	0.784244	0.432343	4078.157227
6072.279149	0.096101	0.432343	4166.858398
6072.280070	0.090114	0.432343	4249.853027
6072.280958	0.090212	0.432343	4329.961426
6072.281891	0.090201	0.432343	4414.119141
6072.282815	0.090209	0.432343	4497.472168
6072.283709	0.090190	0.432343	4578.102539
6072.284652	0.090238	0.432343	4663.196777
6072.285571	0.090125	0.432343	4746.020996
6072.286481	0.090103	0.432343	4828.014160
6072.287377	0.090286	0.432343	4908.910156
6073.297863	1.063154	0.450482	462.472137
6073.298798	1.541232	0.450482	1903.523804
6073.299749	1.526052	0.450482	3354.799316
6073.300679	0.802130	0.450482	4100.780273
6073.301565	0.097987	0.450482	4187.596680
6073.302523	0.090084	0.450482	4273.897461
6073.303459	0.090249	0.450482	4358.370605
6073.304376	0.090238	0.450482	4441.118652
6073.305266	0.090282	0.450482	4521.469727
6073.306196	0.090176	0.450482	4605.333008
6073.307137	0.090132	0.450482	4690.146973
6073.308035	0.090267	0.450482	4771.207031
6073.308960	0.090157	0.450482	4854.602539
6073.309899	0.090220	0.450482	4939.318848
6074.312700	1.090184	0.429918	517.837585
6074.313636	1.542601	0.429918	1961.712402
6074.314573	1.525404	0.429918	3391.015869
6074.315472	0.794945	0.429918	4105.671387
6074.316416	0.096053	0.429918	4196.345703
6074.317352	0.090238	0.429918	4280.808594
6074.318250	0.090271	0.429918	4361.872070
6074.319166	0.090216	0.429918	4444.509766
6074.320101	0.090286	0.429918	4528.926758
6074.321028	0.090220	0.429918	4612.560547
6074.321917	0.090183	0.429918	4692.733398
6074.322849	0.090293	0.429918	4776.886230
6074.323788	0.090278	0.429918	4861.657715
6074.324707	0.090253	0.429918	4944.600098
6075.334614	1.085581	0.440274	486.340332
6075.335512	1.540796	0.440274	1869.975098
6075.336450	1.527938	0.440274	3303.181152
6075.337377	0.860537	0.440274	4100.898926
6075.338284	0.099723	0.440274	4191.347656
6075.339171	0.090209	0.440274	4271.362793
6075.340123	0.090289	0.440274	4357.318359
6075.341029	0.090253	0.440274	4439.087402
6075.341925	0.090311	0.440274	4520.006348
6075.342855	0.090300	0.440274	4603.985840
6075.343772	0.090300	0.440274	4686.791016
6075.344677	0.090216	0.440274	4768.436523
6075.345578	0.090264	0.440274	4849.764160
6075.346509	0.090260	0.440274	4933.796387
6076.347864	1.083926	0.438760	487.766571
6076.348763	1.540884	0.438760	1873.021118
6076.349658	1.528520	0.438760	3241.046875
6076.350635	0.847573	0.438760	4069.125977
6076.351541	0.099269	0.438760	4159.063477
6076.352431	0.090212	0.438760	4239.352539
6076.353378	0.090333	0.438760	4324.897949
6076.354293	0.090172	0.438760	4407.405273
6076.355190	0.090245	0.438760	4488.355469
6076.356078	0.090231	0.438760	4568.480469
6076.357013	0.090223	0.438760	4652.839355
6076.357917	0.090256	0.438760	4734.431152
6076.358817	0.090293	0.438760	4815.694824
6076.359710	0.090260	0.438760	4896.296875
6077.370881	1.127600	0.444021	545.758423
6077.371798	1.542964	0.444021	1960.656250
6077.372697	1.527385	0.444021	3333.775635
6077.373645	0.816343	0.444021	4107.668457
6077.374554	0.097482	0.444021	4196.279297
6077.375467	0.090150	0.444021	4278.586426
6077.376356	0.090212	0.444021	4358.785156
6077.377292	0.090315	0.444021	4443.319824
6077.378202	0.090179	0.444021	4525.383301
6077.379117	0.090183	0.444021	4607.900879
6077.380004	0.090297	0.444021	4687.994141
6077.380970	0.090212	0.444021	4775.139160
6077.381874	0.090242	0.444021	4856.717773
6077.382767	0.090297	0.444021	4937.352539
6078.383570	1.078352	0.430308	476.631622
6078.384537	1.543151	0.430308	1968.858154
6078.385479	1.525404	0.430308	3405.788574
6078.386390	0.778418	0.430308	4114.927246
6078.387321	0.096771	0.430308	4205.021484
6078.388242	0.090190	0.430308	4288.086914
6078.389162	0.090209	0.430308	4371.079102
6078.390055	0.090220	0.430308	4451.645508
6078.391034	0.090168	0.430308	4539.920410
6078.391948	0.090238	0.430308	4622.397949
6078.392865	0.090253	0.430308	4705.159668
6078.393756	0.090190	0.430308	4785.519531
6078.394699	0.090216	0.430308	4870.593262
6078.395622	0.090190	0.430308	4953.838867
6079.408132	1.097758	0.448601	540.096741
6079.409076	1.543733	0.448601	1997.380615
6079.409997	1.524895	0.448601	3401.808838
6079.410904	0.774093	0.448601	4103.911133
6079.411842	0.095416	0.448601	4193.411621
6079.412778	0.090176	0.448601	4277.815918
6079.413679	0.090267	0.448601	4359.146973
6079.414602	0.090205	0.448601	4442.406250
6079.415535	0.090125	0.448601	4526.492187
6079.416472	0.090165	0.448601	4610.976562
6079.417369	0.090260	0.448601	4691.939941
6079.418280	0.090187	0.448601	4774.100098
6079.419206	0.090267	0.448601	4857.687500
6079.420132	0.090289	0.448601	4941.295410
6080.417741	1.069288	0.450841	468.348297
6080.418676	1.541195	0.450841	1909.365601
6080.419609	1.527001	0.450841	3334.057373
6080.420553	0.823619	0.450841	4111.554199
6080.421440	0.099053	0.450841	4199.414062
6080.422391	0.090150	0.450841	4285.146973
6080.423333	0.090223	0.450841	4370.137207
6080.424222	0.090260	0.450841	4450.378418
6080.425136	0.090223	0.450841	4532.842773
6080.426078	0.090242	0.450841	4617.850586
6080.427016	0.090198	0.450841	4702.456055
6080.427917	0.090264	0.450841	4783.783691
6080.428846	0.090249	0.450841	4867.625000
6080.429745	0.090311	0.450841	4948.814941
6081.445321	1.078561	0.433321	473.488190
6081.446297	1.543953	0.433321	1980.385986
6081.447209	1.526250	0.433321	3372.326172
6081.448119	0.816943	0.433321	4115.744629
6081.449055	0.098024	0.433321	4207.494629
6081.449956	0.090249	0.433321	4288.809082
6081.450851	0.090161	0.433321	4369.503418
6081.451741	0.090205	0.433321	4449.786133
6081.452678	0.090348	0.433321	4534.441895
6081.453578	0.090282	0.433321	4615.695801
6081.454478	0.090330	0.433321	4696.992187
6081.455370	0.090249	0.433321	4777.494141
6081.456326	0.090297	0.433321	4863.817871
6081.457231	0.090220	0.433321	4945.466797
6082.453001	1.136997	0.440568	557.128601
6082.453918	1.543260	0.440568	1972.298340
6082.454819	1.526627	0.440568	3347.789551
6082.455723	0.838275	0.440568	4105.590332
6082.456668	0.096808	0.440568	4197.073730
6082.457572	0.090168	0.440568	4278.585937
6082.458463	0.090256	0.440568	4359.004395
6082.459393	0.090293	0.440568	4442.977051
6082.460302	0.090330	0.440568	4525.086426
6082.461201	0.090264	0.440568	4606.233398
6082.462093	0.090278	0.440568	4686.761719
6082.463016	0.090352	0.440568	4770.156250
6082.463944	0.090267	0.440568	4853.924316
6082.464843	0.090260	0.440568	4935.067871
6083.482569	1.070903	0.433478	469.055634
6083.483533	1.540635	0.433478	1954.227539
6083.484451	1.526532	0.433478	3355.583984
6083.485388	0.796329	0.433478	4101.744629
6083.486282	0.097449	0.433478	4188.863770
6083.487239	0.090231	0.433478	4275.214355
6083.488132	0.090282	0.433478	4355.835937
6083.489051	0.090245	0.433478	4438.771484
6083.489949	0.090271	0.433478	4519.834961
6083.490891	0.090231	0.433478	4604.832520
6083.491812	0.090242	0.433478	4687.945312
6083.492700	0.090286	0.433478	4768.119141
6083.493635	0.090267	0.433478	4852.519043
6083.494546	0.090231	0.433478	4934.719238
6084.487674	1.108557	0.442156	539.867310
6084.488606	1.543249	0.442156	1978.175781
6084.489538	1.525415	0.442156	3399.862793
6084.490437	0.791667	0.442156	4111.571777
6084.491374	0.096090	0.442156	4201.608398
6084.492313	0.090242	0.442156	4286.345215
6084.493211	0.090227	0.442156	4367.369141
6084.494123	0.090209	0.442156	4449.639648
6084.495057	0.090319	0.442156	4533.997070
6084.495988	0.090179	0.442156	4617.954102
6084.496887	0.090234	0.442156	4699.074707
6084.497803	0.090249	0.442156	4781.742676
6084.498738	0.090227	0.442156	4866.104980
6084.499652	0.090256	0.442156	4948.599121
6085.518281	1.072760	0.444742	468.796112
6085.519261	1.543597	0.444742	1981.521606
6085.520179	1.526415	0.444742	3382.770508
6085.521083	0.821924	0.444742	4125.789551
6085.522036	0.097939	0.444742	4219.125977
6085.522940	0.090227	0.444742	4300.691406
6085.523829	0.090216	0.444742	4380.893555
6085.524719	0.090139	0.444742	4461.117187
6085.525641	0.090304	0.444742	4544.377441
6085.526551	0.090201	0.444742	4626.460937
6085.527458	0.090201	0.444742	4708.273437
6085.528349	0.090231	0.444742	4788.668945
6085.529298	0.090253	0.444742	4874.318848
6085.530198	0.090245	0.444742	4955.539551
6086.522837	1.076030	0.437273	471.301239
6086.523750	1.541309	0.437273	1878.516113
6086.524649	1.529480	0.437273	3253.518555
6086.525606	0.877317	0.437273	4093.110840
6086.526522	0.098661	0.437273	4183.484375
6086.527440	0.090201	0.437273	4266.289062
6086.528336	0.090282	0.437273	4347.181641
6086.529289	0.090311	0.437273	4433.248047
6086.530192	0.090245	0.437273	4514.739746
6086.531090	0.090341	0.437273	4595.865723
6086.531976	0.090330	0.437273	4675.897949
6086.532913	0.090319	0.437273	4760.526367
6086.533816	0.090168	0.437273	4841.948242
6086.534706	0.090245	0.437273	4922.266602
6087.554004	1.070475	0.444476	474.220367
6087.554905	1.540979	0.444476	1862.642456
6087.555797	1.530000	0.444476	3227.402344
6087.556780	0.852480	0.444476	4065.390625
6087.557673	0.099921	0.444476	4154.619629
6087.558597	0.090231	0.444476	4237.992676
6087.559488	0.090260	0.444476	4318.414551
6087.560424	0.090242	0.444476	4402.880859
6087.561341	0.090194	0.444476	4485.588867
6087.562238	0.090253	0.444476	4566.545410
6087.563175	0.090198	0.444476	4651.060547
6087.564090	0.090286	0.444476	4733.671875
6087.565013	0.090289	0.444476	4817.008789
6087.565902	0.090245	0.444476	4897.236816
6088.559061	1.071724	0.431424	475.845276
6088.560037	1.543865	0.431424	1982.657227
6088.560940	1.526331	0.431424	3360.933594
6088.561886	0.784091	0.431424	4102.683105
6088.562773	0.097119	0.431424	4188.827637
6088.563703	0.090179	0.431424	4272.694336
6088.564630	0.090242	0.431424	4356.348633
6088.565545	0.090209	0.431424	4438.889648
6088.566440	0.090264	0.431424	4519.675781
6088.567394	0.090267	0.431424	4605.791016
6088.568339	0.090227	0.431424	4691.055664
6088.569239	0.090154	0.431424	4772.194336
6088.570158	0.090256	0.431424	4855.140137
6088.571102	0.090209	0.431424	4940.297363
6089.588719	1.077766	0.443549	505.472290
6089.589625	1.542598	0.443549	1903.065796
6089.590557	1.527806	0.443549	3326.981445
6089.591491	0.802449	0.443549	4076.468506
6089.592433	0.096057	0.443549	4166.954102
6089.593326	0.090205	0.443549	4247.507324
6089.594258	0.090245	0.443549	4331.616211
6089.595194	0.090212	0.443549	4416.055176
6089.596114	0.090212	0.443549	4499.050781
6089.596998	0.090190	0.443549	4578.779297
6089.597945	0.090242	0.443549	4664.238281
6089.598878	0.090234	0.443549	4748.426758
6089.599783	0.090363	0.443549	4830.205078
6089.600704	0.090216	0.443549	4913.293945
6090.598386	1.078744	0.416205	504.852173
6090.599284	1.541975	0.416205	1889.545898
6090.600189	1.528660	0.416205	3272.982910
6090.601139	0.850693	0.416205	4081.141602
6090.602066	0.097496	0.416205	4171.520508
6090.602975	0.090106	0.416205	4253.427246
6090.603887	0.090168	0.416205	4335.660645
6090.604828	0.090161	0.416205	4420.502441
6090.605763	0.090223	0.416205	4504.861328
6090.606679	0.090205	0.416205	4587.489258
6090.607570	0.090209	0.416205	4667.865234
6090.608534	0.090322	0.416205	4754.936035
6090.609435	0.090271	0.416205	4836.270020
6090.610329	0.090234	0.416205	4916.939453
6091.622885	1.091796	0.454410	493.491608
6091.623786	1.541448	0.454410	1882.336060
6091.624678	1.529099	0.454410	3246.292480
6091.625655	0.854216	0.454410	4080.861816
6091.626549	0.099485	0.454410	4169.801270
6091.627442	0.090176	0.454410	4250.328125
6091.628382	0.090275	0.454410	4335.186523
6091.629299	0.090223	0.454410	4417.921387
6091.630210	0.090216	0.454410	4500.108398
6091.631104	0.090216	0.454410	4580.761719
6091.632047	0.090326	0.454410	4665.938965
6091.632953	0.090234	0.454410	4747.691406
6091.633845	0.090227	0.454410	4828.173828
6091.634731	0.090245	0.454410	4908.131348
6092.637164	1.103862	0.408821	519.919128
6092.638072	1.542290	0.408821	1920.318359
6092.639032	1.526276	0.408821	3385.542969
6092.639952	0.785010	0.408821	4107.751953
6092.640876	0.096163	0.408821	4196.606934
6092.641760	0.090143	0.408821	4276.292969
6092.642703	0.090264	0.408821	4361.411621
6092.643607	0.090154	0.408821	4442.910645
6092.644496	0.090223	0.408821	4523.119141
6092.645433	0.090293	0.408821	4607.723633
6092.646341	0.090179	0.408821	4689.606445
6092.647255	0.090231	0.408821	4772.077148
6092.648144	0.090201	0.408821	4852.266113
6092.649087	0.090245	0.408821	4937.367676
