time (s)	coil I (A)	last det (V)	int current (uC)
5090.673615	1.067985	0.267850	468.845276
5090.674508	1.541019	0.267850	1844.975342
5090.675492	1.530044	0.267850	3350.538574
5090.676414	0.825908	0.267850	4112.025879
5090.677306	0.099174	0.267850	4200.488770
5090.678245	0.090227	0.267850	4285.211914
5090.679145	0.090289	0.267850	4366.472168
5090.680044	0.090322	0.267850	4447.671875
5090.680931	0.090209	0.267850	4527.687012
5090.681865	0.090315	0.267850	4612.041016
5090.682767	0.090282	0.267850	4693.475586
5090.683672	0.090209	0.267850	4775.114258
5090.684565	0.090143	0.267850	4855.611816
5090.685516	0.090245	0.267850	4941.435059
5091.724754	1.078305	0.279009	476.610596
5091.725710	1.543960	0.279009	1952.636353
5091.726617	1.529271	0.279009	3339.685547
5091.727512	0.873010	0.279009	4121.029785
5091.728458	0.101265	0.279009	4216.826172
5091.729374	0.090194	0.279009	4299.443848
5091.730281	0.090154	0.279009	4381.213379
5091.731174	0.090275	0.279009	4461.828613
5091.732112	0.090300	0.279009	4546.530273
5091.733019	0.090172	0.279009	4628.316406
5091.733916	0.090227	0.279009	4709.250000
5091.734807	0.090201	0.279009	4789.619629
5091.735750	0.090194	0.279009	4874.672852
5091.736648	0.090198	0.279009	4955.670410
5092.711371	1.083340	0.272358	477.752899
5092.712346	1.545062	0.272358	1984.188721
5092.713258	1.528513	0.272358	3378.192871
5092.714158	0.836547	0.272358	4131.084961
5092.715107	0.099269	0.272358	4225.291016
5092.716010	0.090135	0.272358	4306.683594
5092.716916	0.090256	0.272358	4388.456055
5092.717807	0.090227	0.272358	4468.848145
5092.718743	0.090278	0.272358	4553.348633
5092.719656	0.090187	0.272358	4635.688965
5092.720565	0.090205	0.272358	4717.685547
5092.721459	0.090161	0.272358	4798.289551
5092.722395	0.090242	0.272358	4882.755859
5092.723301	0.090216	0.272358	4964.491699
5093.759966	1.100523	0.273941	502.938782
5093.760915	1.544714	0.273941	1968.872803
5093.761810	1.529824	0.273941	3338.065430
5093.762780	0.774272	0.273941	4089.109619
5093.763701	0.096182	0.273941	4177.692871
5093.764621	0.090209	0.273941	4260.685059
5093.765508	0.090260	0.273941	4340.745605
5093.766465	0.090256	0.273941	4427.121094
5093.767382	0.090198	0.273941	4509.832520
5093.768296	0.090238	0.273941	4592.310059
5093.769192	0.090245	0.273941	4673.169922
5093.770127	0.090293	0.273941	4757.593750
5093.771063	0.090234	0.273941	4842.053223
5093.771965	0.090238	0.273941	4923.447754
5094.745029	1.060016	0.281131	460.046844
5094.745975	1.540833	0.281131	1917.674438
5094.746916	1.528627	0.281131	3356.112305
5094.747871	0.769746	0.281131	4091.219727
5094.748763	0.097024	0.281131	4177.765137
5094.749698	0.090048	0.281131	4261.959473
5094.750642	0.090297	0.281131	4347.199707
5094.751559	0.090227	0.281131	4429.937988
5094.752445	0.090176	0.281131	4509.833496
5094.753386	0.090190	0.281131	4594.702637
5094.754321	0.090216	0.281131	4679.054687
5094.755226	0.090231	0.281131	4760.713379
5094.756156	0.090168	0.281131	4844.569824
5094.757098	0.090282	0.281131	4929.615234
5095.792089	1.069966	0.275878	475.064819
5095.792987	1.541583	0.275878	1859.406494
5095.793946	1.529630	0.275878	3326.321777
5095.794888	0.809865	0.275878	4089.214111
5095.795809	0.096976	0.275878	4178.529297
5095.796708	0.090209	0.275878	4259.626953
5095.797663	0.090319	0.275878	4345.881348
5095.798569	0.090275	0.275878	4427.670410
5095.799473	0.090194	0.275878	4509.206055
5095.800361	0.090220	0.275878	4589.321289
5095.801304	0.090275	0.275878	4674.450195
5095.802205	0.090227	0.275878	4755.744629
5095.803104	0.090253	0.275878	4836.881836
5095.803991	0.090267	0.275878	4916.948730
5096.781287	1.092847	0.303791	499.430969
5096.782203	1.542909	0.303791	1912.735596
5096.783102	1.530681	0.303791	3288.817871
5096.784032	0.870000	0.303791	4097.917969
5096.784961	0.098778	0.303791	4189.682617
5096.785874	0.090161	0.303791	4271.999512
5096.786767	0.090198	0.303791	4352.545898
5096.787706	0.090348	0.303791	4437.382812
5096.788608	0.090231	0.303791	4518.770996
5096.789502	0.090293	0.303791	4599.492676
5096.790392	0.090256	0.303791	4679.820801
5096.791332	0.090311	0.303791	4764.713379
5096.792228	0.090238	0.303791	4845.566895
5096.793123	0.090132	0.303791	4926.234863
5097.825751	1.082655	0.300721	490.442688
5097.826652	1.542360	0.300721	1880.108643
5097.827548	1.530590	0.300721	3251.516846
5097.828523	0.844215	0.300721	4074.626465
5097.829428	0.099214	0.300721	4164.415039
5097.830321	0.090212	0.300721	4244.974609
5097.831246	0.090341	0.300721	4328.539551
5097.832159	0.090245	0.300721	4410.933594
5097.833058	0.090260	0.300721	4492.077148
5097.833949	0.090256	0.300721	4572.495605
5097.834890	0.090388	0.300721	4657.550781
5097.835796	0.090157	0.300721	4739.233398
5097.836689	0.090198	0.300721	4819.779785
5097.837585	0.090289	0.300721	4900.679199
5098.823632	1.068658	0.313318	471.278320
5098.824527	1.540990	0.313318	1850.464355
5098.825508	1.529213	0.313318	3350.622070
5098.826429	0.822550	0.313318	4108.190430
5098.827317	0.099126	0.313318	4196.214355
5098.828273	0.090183	0.313318	4282.429199
5098.829183	0.090183	0.313318	4364.495605
5098.830100	0.090168	0.313318	4447.180176
5098.830988	0.090168	0.313318	4527.250000
5098.831927	0.090216	0.313318	4611.962891
5098.832833	0.090172	0.313318	4693.658691
5098.833752	0.090194	0.313318	4776.546875
5098.834651	0.090271	0.313318	4857.700684
5098.835592	0.090267	0.313318	4942.642090
5099.859935	1.079502	0.330346	492.252899
5099.860830	1.542129	0.330346	1872.458374
5099.861784	1.530297	0.330346	3332.361328
5099.862719	0.812801	0.330346	4092.330566
5099.863649	0.097258	0.330346	4182.780762
5099.864534	0.090114	0.330346	4262.531250
5099.865486	0.090190	0.330346	4348.392578
5099.866389	0.090150	0.330346	4429.798340
5099.867306	0.090220	0.330346	4512.529785
5099.868200	0.090179	0.330346	4593.150391
5099.869153	0.090234	0.330346	4679.143555
5099.870077	0.090205	0.330346	4762.493164
5099.871001	0.090271	0.330346	4845.903320
5099.871892	0.090253	0.330346	4926.318359
5100.870600	1.064777	0.331344	466.372162
5100.871498	1.540972	0.331344	1850.164673
5100.872466	1.529875	0.331344	3331.083984
5100.873419	0.809546	0.331344	4102.581055
5100.874316	0.097181	0.331344	4189.752930
5100.875241	0.090212	0.331344	4273.199219
5100.876176	0.090176	0.331344	4357.513672
5100.877108	0.090161	0.331344	4441.543945
5100.878024	0.090209	0.331344	4524.175293
5100.878917	0.090234	0.331344	4604.754395
5100.879851	0.090311	0.331344	4689.104980
5100.880775	0.090282	0.331344	4772.525391
5100.881672	0.090172	0.331344	4853.409668
5100.882591	0.090201	0.331344	4936.304687
5101.886957	1.078869	0.362504	502.752716
5101.887868	1.543546	0.362504	1908.923218
5101.888768	1.530289	0.362504	3286.183594
5101.889749	0.803899	0.362504	4074.808350
5101.890692	0.096119	0.362504	4165.448730
5101.891588	0.090183	0.362504	4246.252930
5101.892502	0.090223	0.362504	4328.717285
5101.893447	0.090106	0.362504	4413.867676
5101.894377	0.090286	0.362504	4497.833496
5101.895280	0.090278	0.362504	4579.354980
5101.896199	0.090172	0.362504	4662.223145
5101.897117	0.090223	0.362504	4745.048340
5101.898041	0.090187	0.362504	4828.380859
5101.898942	0.090267	0.362504	4909.711914
5102.908885	1.074273	0.342837	476.976990
5102.909778	1.541100	0.342837	1853.179199
5102.910744	1.529963	0.342837	3331.123779
5102.911666	0.847028	0.342837	4112.083008
5102.912557	0.099657	0.342837	4200.877441
5102.913481	0.090110	0.342837	4284.139160
5102.914384	0.090227	0.342837	4365.614258
5102.915295	0.090125	0.342837	4447.717773
5102.916191	0.090165	0.342837	4528.505371
5102.917115	0.090341	0.342837	4611.979980
5102.918010	0.090183	0.342837	4692.693848
5102.918914	0.090198	0.342837	4774.232422
5102.919801	0.090154	0.342837	4854.198730
5102.920739	0.090231	0.342837	4938.834961
5103.906835	1.104785	0.356630	563.440430
5103.907743	1.544993	0.356630	1966.293823
5103.908651	1.528835	0.356630	3354.476562
5103.909549	0.842889	0.356630	4111.391113
5103.910485	0.097137	0.356630	4202.311523
5103.911387	0.090099	0.356630	4283.580566
5103.912290	0.090293	0.356630	4365.115234
5103.913184	0.090183	0.356630	4445.738770
5103.914123	0.090249	0.356630	4530.482422
5103.915036	0.090198	0.356630	4612.833008
5103.915929	0.090194	0.356630	4693.376465
5103.916869	0.090198	0.356630	4778.162109
5103.917768	0.090223	0.356630	4859.272949
5103.918673	0.090227	0.356630	4940.928223
5104.947675	1.085284	0.336086	485.122101
5104.948578	1.542155	0.336086	1877.687622
5104.949477	1.532062	0.336086	3255.011230
5104.950439	0.877800	0.336086	4099.455078
5104.951346	0.099987	0.336086	4190.143066
5104.952241	0.090084	0.336086	4270.768555
5104.953133	0.090201	0.336086	4351.228027
5104.954074	0.090234	0.336086	4436.138672
5104.954984	0.090205	0.336086	4518.225098
5104.955882	0.090161	0.336086	4599.189941
5104.956770	0.090157	0.336086	4679.250000
5104.957722	0.090227	0.336086	4765.145996
5104.958624	0.090146	0.336086	4846.458008
5104.959519	0.090212	0.336086	4927.198242
5105.938903	1.073928	0.303332	480.045929
5105.939798	1.541550	0.303332	1859.733398
5105.940770	1.529689	0.303332	3346.590820
5105.941694	0.827373	0.303332	4111.083496
5105.942591	0.098848	0.303332	4199.750000
5105.943489	0.090095	0.303332	4280.655273
5105.944429	0.090275	0.303332	4365.513672
5105.945335	0.090114	0.303332	4447.156738
5105.946223	0.090205	0.303332	4527.258789
5105.947152	0.090227	0.303332	4611.079590
5105.948068	0.090289	0.303332	4693.784668
5105.948973	0.090264	0.303332	4775.473145
5105.949864	0.090194	0.303332	4855.835937
5105.950825	0.090253	0.303332	4942.568848
5106.992098	1.105789	0.366693	507.556976
5106.993018	1.543444	0.366693	1927.525146
5106.993919	1.530619	0.366693	3306.612793
5106.994870	0.822568	0.366693	4088.875244
5106.995818	0.096541	0.366693	4180.395508
5106.996729	0.090161	0.366693	4262.532227
5106.997617	0.090128	0.366693	4342.565918
5106.998579	0.090238	0.366693	4429.375000
5106.999496	0.090209	0.366693	4512.096191
5107.000385	0.090187	0.366693	4592.272461
5107.001332	0.090322	0.366693	4677.807617
5107.002231	0.090179	0.366693	4758.878906
5107.003145	0.090238	0.366693	4841.356445
5107.004041	0.090187	0.366693	4922.163574
5107.984893	1.115577	0.318349	544.401794
5107.985847	1.545143	0.318349	2018.468018
5107.986770	1.527627	0.318349	3428.467773
5107.987672	0.773159	0.318349	4125.857422
5107.988611	0.095874	0.318349	4215.883301
5107.989549	0.090216	0.318349	4300.505859
5107.990440	0.090190	0.318349	4380.865723
5107.991354	0.090264	0.318349	4463.366699
5107.992292	0.090304	0.318349	4548.071777
5107.993212	0.090216	0.318349	4631.070312
5107.994107	0.090165	0.318349	4711.767578
5107.995046	0.090161	0.318349	4796.428711
5107.995978	0.090176	0.318349	4880.472656
5107.996896	0.090205	0.318349	4963.280762
5109.012962	1.078843	0.399097	488.715759
5109.013858	1.541993	0.399097	1870.341797
5109.014752	1.531674	0.399097	3239.657959
5109.015711	0.876830	0.399097	4080.537842
5109.016655	0.099492	0.399097	4174.458496
5109.017551	0.090245	0.399097	4255.318359
5109.018471	0.090231	0.399097	4338.330566
5109.019412	0.090190	0.399097	4423.199707
5109.020328	0.090220	0.399097	4505.840820
5109.021214	0.090227	0.399097	4585.782227
5109.022162	0.090212	0.399097	4671.303711
5109.023096	0.090161	0.399097	4755.514160
5109.023994	0.090201	0.399097	4836.515137
5109.024908	0.090183	0.399097	4918.942383
5110.032873	1.100123	0.360236	519.258179
5110.033813	1.543986	0.360236	1970.604614
5110.034706	1.529004	0.360236	3336.005127
5110.035643	0.820038	0.360236	4104.380859
5110.036595	0.096866	0.360236	4196.597656
5110.037506	0.090194	0.360236	4278.764648
5110.038398	0.090216	0.360236	4359.237305
5110.039344	0.090253	0.360236	4444.616211
5110.040272	0.090275	0.360236	4528.391113
5110.041168	0.090245	0.360236	4609.250977
5110.042091	0.090154	0.360236	4692.462891
5110.043025	0.090271	0.360236	4776.775879
5110.043956	0.090176	0.360236	4860.729492
5110.044852	0.090275	0.360236	4941.615723
5111.036893	1.081062	0.376385	478.910461
5111.037818	1.541781	0.376385	1905.057861
5111.038715	1.530157	0.376385	3277.609131
5111.039683	0.833474	0.376385	4084.412109
5111.040579	0.099547	0.376385	4173.606445
5111.041474	0.090117	0.376385	4254.261230
5111.042364	0.090209	0.376385	4334.546875
5111.043295	0.090275	0.376385	4418.592773
5111.044200	0.090234	0.376385	4500.254883
5111.045100	0.090238	0.376385	4581.469238
5111.046038	0.090198	0.376385	4666.074707
5111.046943	0.090304	0.376385	4747.799805
5111.047850	0.090176	0.376385	4829.589355
5111.048739	0.090205	0.376385	4909.781738
5112.071631	1.068018	0.341887	472.063782
5112.072527	1.540162	0.341887	1852.049316
5112.073487	1.529282	0.341887	3320.160156
5112.074422	0.834672	0.341887	4100.578125
5112.075326	0.098694	0.341887	4189.797363
5112.076231	0.090157	0.341887	4271.389648
5112.077172	0.090165	0.341887	4356.234863
5112.078075	0.090238	0.341887	4437.719727
5112.078969	0.090220	0.341887	4518.375977
5112.079894	0.090201	0.341887	4601.812500
5112.080808	0.090194	0.341887	4684.250000
5112.081711	0.090212	0.341887	4765.711914
5112.082604	0.090212	0.341887	4846.271484
5112.083553	0.090238	0.341887	4931.907227
5113.071594	1.084856	0.325161	510.967133
5113.072503	1.543011	0.325161	1913.564575
5113.073438	1.529436	0.325161	3343.587402
5113.074366	0.854641	0.325161	4136.694336
5113.075290	0.098562	0.325161	4227.765625
5113.076179	0.090051	0.325161	4307.821289
5113.077127	0.090223	0.325161	4393.353027
5113.078032	0.090194	0.325161	4474.978516
5113.078950	0.090231	0.325161	4557.810547
5113.079839	0.090187	0.325161	4637.986816
5113.080793	0.090205	0.325161	4724.042480
5113.081691	0.090088	0.325161	4804.941406
5113.082584	0.090242	0.325161	4885.527344
5113.083522	0.090249	0.325161	4970.181152
5114.107911	1.098622	0.374689	538.324707
5114.108847	1.544301	0.374689	1983.790039
5114.109747	1.528418	0.374689	3359.366211
5114.110692	0.794685	0.374689	4110.343750
5114.111613	0.095819	0.374689	4198.593262
5114.112542	0.090110	0.374689	4282.305176
5114.113436	0.090179	0.374689	4362.925781
5114.114364	0.090139	0.374689	4446.574707
5114.115302	0.090223	0.374689	4531.204102
5114.116226	0.090234	0.374689	4614.580566
5114.117114	0.090110	0.374689	4694.598145
5114.118051	0.090139	0.374689	4779.058594
5114.118981	0.090125	0.374689	4862.874512
5114.119872	0.090245	0.374689	4943.283203
5115.125727	1.069823	0.382315	473.931549
5115.126631	1.541704	0.382315	1867.631958
5115.127528	1.531242	0.382315	3241.155762
5115.128503	0.852927	0.382315	4072.759766
5115.129441	0.098159	0.382315	4164.833008
5115.130339	0.090245	0.382315	4245.873535
5115.131255	0.090143	0.382315	4328.444336
5115.132181	0.090201	0.382315	4411.970703
5115.133112	0.090282	0.382315	4496.023437
5115.134003	0.090289	0.382315	4576.471191
5115.134928	0.090256	0.382315	4659.958496
5115.135869	0.090267	0.382315	4744.899902
5115.136791	0.090198	0.382315	4828.062012
5115.137680	0.090220	0.382315	4908.267578
5116.134349	1.079583	0.397924	476.095917
5116.135307	1.543363	0.397924	1954.637695
5116.136238	1.527689	0.397924	3376.916260
5116.137167	0.786775	0.397924	4107.830078
5116.138065	0.097156	0.397924	4195.076172
5116.139031	0.090190	0.397924	4282.200195
5116.139968	0.090220	0.397924	4366.735840
5116.140863	0.090161	0.397924	4447.430176
5116.141781	0.090190	0.397924	4530.225098
5116.142716	0.090165	0.397924	4614.529297
5116.143629	0.090216	0.397924	4696.896484
5116.144518	0.090165	0.397924	4777.053223
5116.145465	0.090198	0.397924	4862.470703
5116.146396	0.090165	0.397924	4946.414062
5117.165565	1.109824	0.394315	542.704041
5117.166483	1.544242	0.394315	1960.318115
5117.167391	1.528543	0.394315	3348.234863
5117.168297	0.845878	0.394315	4114.600098
5117.169260	0.096233	0.394315	4207.272461
5117.170161	0.090223	0.394315	4288.563965
5117.171060	0.090172	0.394315	4369.628906
5117.171970	0.090297	0.394315	4451.798828
5117.172898	0.090264	0.394315	4535.563477
5117.173797	0.090154	0.394315	4616.611816
5117.174694	0.090234	0.394315	4697.552246
5117.175632	0.090245	0.394315	4782.202148
5117.176533	0.090271	0.394315	4863.536133
5117.177435	0.090234	0.394315	4944.927734
5118.162402	1.094484	0.373763	496.895630
5118.163344	1.543239	0.373763	1950.626343
5118.164241	1.529586	0.373763	3322.665039
5118.165214	0.790964	0.373763	4092.273437
5118.166118	0.097368	0.373763	4180.294434
5118.167025	0.090154	0.373763	4262.063965
5118.167918	0.090209	0.373763	4342.620605
5118.168848	0.090377	0.373763	4426.671387
5118.169754	0.090275	0.373763	4508.460449
5118.170653	0.090271	0.373763	4589.614258
5118.171543	0.090209	0.373763	4669.899902
5118.172494	0.090275	0.373763	4755.750977
5118.173398	0.090271	0.373763	4837.355957
5118.174293	0.090209	0.373763	4918.092773
5119.202274	1.090261	0.372880	492.798065
5119.203183	1.542264	0.372880	1894.716431
5119.204093	1.530381	0.372880	3287.363037
5119.204993	0.899590	0.372880	4096.994141
5119.205939	0.099965	0.372880	4191.560547
5119.206849	0.090168	0.372880	4273.613770
5119.207742	0.090231	0.372880	4354.189941
5119.208680	0.090337	0.372880	4438.925781
5119.209586	0.090322	0.372880	4520.757812
5119.210484	0.090264	0.372880	4601.814453
5119.211376	0.090245	0.372880	4682.313477
5119.212315	0.090289	0.372880	4767.095215
5119.213222	0.090220	0.372880	4848.924316
5119.214130	0.090231	0.372880	4930.854004
5120.196582	1.106503	0.330253	516.736755
5120.197489	1.543195	0.330253	1916.414307
5120.198446	1.528517	0.330253	3379.204834
5120.199376	0.793253	0.330253	4116.930176
5120.200271	0.097859	0.330253	4204.513672
5120.201162	0.090114	0.330253	4284.804687
5120.202111	0.090253	0.330253	4370.454590
5120.203008	0.090289	0.330253	4451.444336
5120.203908	0.090267	0.330253	4532.685059
5120.204795	0.090267	0.330253	4612.751953
5120.205735	0.090234	0.330253	4697.572266
5120.206645	0.090245	0.330253	4779.695312
5120.207548	0.090146	0.330253	4861.097656
5120.208483	0.090223	0.330253	4945.456543
5121.238991	1.073533	0.392764	468.060272
5121.239912	1.542008	0.392764	1888.249756
5121.240823	1.530623	0.392764	3282.646973
5121.241776	0.854187	0.392764	4096.687012
5121.242674	0.099646	0.392764	4186.168945
5121.243576	0.090146	0.392764	4267.480957
5121.244463	0.090212	0.392764	4347.499512
5121.245419	0.090249	0.392764	4433.777344
5121.246318	0.090278	0.392764	4514.937500
5121.247215	0.090176	0.392764	4595.825195
5121.248101	0.090245	0.392764	4675.782715
5121.249059	0.090264	0.392764	4762.255371
5121.249970	0.090194	0.392764	4844.422363
5121.250869	0.090245	0.392764	4925.552734
5122.238944	1.090173	0.345726	490.577972
5122.239870	1.542316	0.345726	1918.762329
5122.240770	1.530073	0.345726	3295.828125
5122.241733	0.828757	0.345726	4093.921387
5122.242634	0.098807	0.345726	4182.946777
5122.243530	0.090187	0.345726	4263.753906
5122.244420	0.090209	0.345726	4344.039551
5122.245350	0.090256	0.345726	4427.978027
5122.246254	0.090264	0.345726	4509.576172
5122.247159	0.090253	0.345726	4591.254883
5122.248044	0.090234	0.345726	4671.112305
5122.249002	0.090165	0.345726	4757.490234
5122.249909	0.090220	0.345726	4839.319336
5122.250804	0.090201	0.345726	4920.049805
5123.268081	1.079586	0.430062	513.882996
5123.269005	1.543209	0.430062	1939.808350
5123.269925	1.528264	0.430062	3345.811523
5123.270836	0.830728	0.430062	4102.604492
5123.271734	0.099196	0.430062	4191.682129
5123.272682	0.090209	0.430062	4277.200195
5123.273586	0.090187	0.430062	4358.729004
5123.274479	0.090249	0.430062	4439.321289
5123.275413	0.090190	0.430062	4523.559082
5123.276329	0.090187	0.430062	4606.169922
5123.277223	0.090253	0.430062	4686.855957
5123.278113	0.090245	0.430062	4767.174316
5123.279049	0.090286	0.430062	4851.681641
5123.279949	0.090227	0.430062	4932.885742
5124.282861	1.114003	0.404861	526.923279
5124.283780	1.543125	0.404861	1945.055176
5124.284674	1.529315	0.404861	3312.262939
5124.285634	0.806865	0.404861	4086.853516
5124.286526	0.098291	0.404861	4174.529297
5124.287443	0.090176	0.404861	4257.220703
5124.288344	0.090209	0.404861	4338.499023
5124.289274	0.090209	0.404861	4422.393066
5124.290179	0.090176	0.404861	4504.001953
5124.291069	0.090234	0.404861	4584.310547
5124.292007	0.090275	0.404861	4668.988281
5124.292923	0.090135	0.404861	4751.552246
5124.293825	0.090275	0.404861	4832.979980
5124.294715	0.090267	0.404861	4913.317871
5125.297118	1.078499	0.451521	484.245880
5125.298021	1.541283	0.451521	1876.024292
5125.298978	1.529066	0.451521	3339.340576
5125.299895	0.837202	0.451521	4107.054687
5125.300825	0.097767	0.451521	4197.978516
5125.301714	0.090128	0.451521	4278.102539
5125.302645	0.090212	0.451521	4362.090332
5125.303552	0.090135	0.451521	4443.843262
5125.304440	0.090201	0.451521	4523.941895
5125.305353	0.090201	0.451521	4606.295898
5125.306286	0.090205	0.451521	4690.457031
5125.307189	0.090212	0.451521	4771.918945
5125.308077	0.090234	0.451521	4852.046875
5125.309012	0.090201	0.451521	4936.385254
5126.319585	1.096132	0.418928	499.835999
5126.320495	1.540034	0.418928	1901.267090
5126.321428	1.526770	0.418928	3325.743652
5126.322336	0.844933	0.418928	4092.942627
5126.323279	0.097808	0.418928	4185.175293
5126.324199	0.089938	0.418928	4267.917969
5126.325088	0.089960	0.418928	4347.892090
5126.326035	0.090220	0.418928	4433.330078
5126.326943	0.090121	0.418928	4515.159668
5126.327853	0.090154	0.418928	4597.199707
5126.328745	0.090297	0.418928	4677.744141
5126.329689	0.090179	0.418928	4762.873535
5126.330618	0.090198	0.418928	4846.667480
5126.331508	0.090234	0.418928	4926.976074
5127.328715	1.070563	0.455775	472.118164
5127.329693	1.543444	0.455775	1981.606079
5127.330617	1.527433	0.455775	3392.954102
5127.331511	0.818676	0.455775	4124.850098
5127.332450	0.098489	0.455775	4217.331055
5127.333358	0.090117	0.455775	4299.157227
5127.334271	0.090179	0.455775	4381.491211
5127.335167	0.090223	0.455775	4462.331543
5127.336113	0.090146	0.455775	4547.610352
5127.337022	0.090179	0.455775	4629.583496
5127.337942	0.090216	0.455775	4712.582031
5127.338830	0.090190	0.455775	4792.670898
5127.339785	0.090198	0.455775	4878.809570
5127.340704	0.090220	0.455775	4961.721680
5128.353766	1.103998	0.420487	502.319000
5128.354708	1.543597	0.420487	1956.387817
5128.355605	1.528964	0.420487	3327.868164
5128.356543	0.820979	0.420487	4097.946289
5128.357494	0.096229	0.420487	4189.460449
5128.358416	0.090176	0.420487	4272.602539
5128.359301	0.090194	0.420487	4352.424316
5128.360241	0.090150	0.420487	4437.165527
5128.361176	0.090267	0.420487	4521.565430
5128.362098	0.090194	0.420487	4604.724609
5128.362985	0.090220	0.420487	4684.749512
5128.363923	0.090264	0.420487	4769.416992
5128.364861	0.090198	0.420487	4854.022461
5128.365760	0.090256	0.420487	4935.163086
5129.361386	1.076682	0.454853	501.733917
5129.362295	1.542305	0.454853	1903.688843
5129.363230	1.529293	0.454853	3333.578125
5129.364179	0.779718	0.454853	4073.530518
5129.365121	0.095775	0.454853	4163.750488
5129.366020	0.090212	0.454853	4244.851562
5129.366934	0.090286	0.454853	4327.372559
5129.367870	0.090242	0.454853	4411.838867
5129.368788	0.090278	0.454853	4494.714355
5129.369678	0.090212	0.454853	4575.003418
5129.370626	0.090267	0.454853	4660.576660
5129.371566	0.090264	0.454853	4745.424316
5129.372466	0.090201	0.454853	4826.605469
5129.373392	0.090234	0.454853	4910.162598
5130.387933	1.083918	0.418243	485.595459
5130.388857	1.541869	0.418243	1910.282349
5130.389758	1.530176	0.418243	3288.970703
5130.390698	0.873534	0.418243	4110.092773
5130.391602	0.099792	0.418243	4200.305176
5130.392509	0.090157	0.418243	4282.078125
5130.393404	0.090172	0.418243	4362.782227
5130.394340	0.090238	0.418243	4447.245117
5130.395243	0.090187	0.418243	4528.683594
5130.396143	0.090220	0.418243	4609.881348
5130.397034	0.090231	0.418243	4690.276855
5130.397983	0.090363	0.418243	4776.030762
5130.398891	0.090150	0.418243	4857.887207
5130.399781	0.090264	0.418243	4938.221680
5131.395541	1.074763	0.459566	478.269623
5131.396446	1.540895	0.459566	1872.779419
5131.397341	1.530806	0.459566	3242.850586
5131.398299	0.874819	0.459566	4080.927490
5131.399200	0.101331	0.459566	4172.226562
5131.400091	0.089974	0.459566	4252.393555
5131.401018	0.089641	0.459566	4335.490723
5131.401936	0.089839	0.459566	4417.962891
5131.402842	0.090216	0.459566	4499.698730
5131.403733	0.090150	0.459566	4580.022461
5131.404668	0.090209	0.459566	4664.367676
5131.405589	0.090227	0.459566	4747.466797
5131.406488	0.090135	0.459566	4828.498535
5131.407380	0.090282	0.459566	4909.030273
5132.422155	1.133203	0.418489	565.468323
5132.423072	1.543989	0.418489	1981.306396
5132.424000	1.527345	0.418489	3398.682617
5132.424900	0.798428	0.418489	4117.267578
5132.425869	0.095142	0.418489	4209.459961
5132.426796	0.090256	0.418489	4293.127441
5132.427688	0.090220	0.418489	4373.603516
5132.428628	0.090227	0.418489	4458.416992
5132.429545	0.090227	0.418489	4541.155273
5132.430467	0.090216	0.418489	4624.334473
5132.431352	0.090304	0.418489	4704.253418
5132.432296	0.090198	0.418489	4789.399902
5132.433202	0.090275	0.418489	4871.188965
5132.434125	0.090282	0.418489	4954.519043
5133.431240	1.060869	0.466918	460.417175
5133.432169	1.540173	0.466918	1891.238281
5133.433122	1.528389	0.466918	3347.792725
5133.434071	0.782926	0.466918	4090.789551
5133.434967	0.097343	0.466918	4178.008301
5133.435888	0.090103	0.466918	4260.992676
5133.436824	0.090256	0.466918	4345.472656
5133.437740	0.090275	0.466918	4428.164062
5133.438629	0.090201	0.466918	4508.353027
5133.439574	0.090176	0.466918	4593.569336
5133.440511	0.090161	0.466918	4678.050293
5133.441410	0.090150	0.466918	4759.095215
5133.442329	0.090172	0.466918	4841.963379
5133.443265	0.090231	0.466918	4926.419434
5134.456311	1.087086	0.427078	522.888489
5134.457261	1.543700	0.427078	1989.403564
5134.458192	1.526715	0.427078	3410.775391
5134.459095	0.777231	0.427078	4112.615234
5134.460057	0.095471	0.427078	4204.458496
5134.460986	0.090190	0.427078	4288.245605
5134.461880	0.090242	0.427078	4368.921875
5134.462801	0.090245	0.427078	4452.038086
5134.463731	0.090212	0.427078	4535.935547
5134.464653	0.090209	0.427078	4619.107910
5134.465549	0.090260	0.427078	4699.980957
5134.466483	0.090168	0.427078	4784.198242
5134.467426	0.090231	0.427078	4869.285645
5134.468351	0.090216	0.427078	4952.735352
5135.471049	1.062030	0.477339	458.796997
5135.471960	1.540503	0.477339	1862.195190
5135.472869	1.530641	0.477339	3253.547852
5135.473819	0.886135	0.477339	4095.376465
5135.474714	0.102052	0.477339	4186.712891
5135.475614	0.090062	0.477339	4267.769043
5135.476501	0.090271	0.477339	4347.839355
5135.477450	0.090370	0.477339	4433.600586
5135.478345	0.090245	0.477339	4514.370117
5135.479244	0.090165	0.477339	4595.428223
5135.480165	0.090194	0.477339	4678.497070
5135.481084	0.090205	0.477339	4761.395508
5135.481991	0.090168	0.477339	4843.178223
5135.482886	0.090198	0.477339	4923.905273
5136.490441	1.065938	0.440161	467.946564
5136.491415	1.543839	0.440161	1971.645874
5136.492335	1.527341	0.440161	3376.799805
5136.493269	0.774148	0.440161	4099.854004
5136.494155	0.097368	0.440161	4186.122070
5136.495109	0.090165	0.440161	4272.139160
5136.496000	0.090216	0.440161	4352.521484
5136.496889	0.090249	0.440161	4432.752930
5136.497843	0.090212	0.440161	4518.815430
5136.498738	0.090216	0.440161	4599.558594
5136.499655	0.090205	0.440161	4682.276855
5136.500552	0.090201	0.440161	4763.187500
5136.501487	0.090256	0.440161	4847.577148
5136.502399	0.090242	0.440161	4929.877441
5137.513423	1.067289	0.470753	471.741638
5137.514317	1.539943	0.470753	1848.450439
5137.515301	1.528726	0.470753	3352.716309
5137.516230	0.816486	0.470753	4111.231445
5137.517118	0.098112	0.470753	4198.354492
5137.518053	0.090161	0.470753	4282.655273
5137.518979	0.090223	0.470753	4366.202148
5137.519907	0.090223	0.470753	4449.929687
5137.520796	0.090256	0.470753	4530.167480
5137.521741	0.090187	0.470753	4615.394043
5137.522649	0.090264	0.470753	4697.353516
5137.523579	0.090216	0.470753	4781.254395
5137.524471	0.090231	0.470753	4861.740234
5137.525424	0.090245	0.470753	4947.744141
5138.528769	1.113494	0.445310	547.838867
5138.529719	1.544044	0.445310	2014.680908
5138.530647	1.526173	0.445310	3430.969727
5138.531546	0.770654	0.445310	4123.788086
5138.532482	0.095640	0.445310	4213.306641
5138.533415	0.090139	0.445310	4297.406250
5138.534310	0.090227	0.445310	4378.159668
5138.535231	0.090198	0.445310	4461.231934
5138.536163	0.090238	0.445310	4545.333984
5138.537077	0.090209	0.445310	4627.784668
5138.537972	0.090212	0.445310	4708.524902
5138.538898	0.090271	0.445310	4792.115723
5138.539838	0.090179	0.445310	4876.884277
5138.540759	0.090168	0.445310	4959.929199
5139.559411	1.082736	0.441378	509.968506
5139.560347	1.543217	0.441378	1954.419189
5139.561243	1.528685	0.441378	3324.121094
5139.562176	0.838781	0.441378	4106.703125
5139.563117	0.097445	0.441378	4198.398926
5139.564042	0.090168	0.441378	4281.804687
5139.564939	0.090227	0.441378	4362.738281
5139.565865	0.090220	0.441378	4446.281738
5139.566790	0.090198	0.441378	4529.714844
5139.567736	0.090161	0.441378	4615.007324
5139.568635	0.090253	0.441378	4696.144531
5139.569566	0.090198	0.441378	4780.118652
5139.570505	0.090209	0.441378	4864.824707
5139.571422	0.090205	0.441378	4947.542969
5140.563925	1.078781	0.455505	477.899780
5140.564838	1.541147	0.455505	1884.967407
5140.565748	1.529011	0.455505	3276.367676
5140.566712	0.841417	0.455505	4087.493896
5140.567612	0.099430	0.455505	4176.980957
5140.568509	0.090154	0.455505	4257.849121
5140.569393	0.090157	0.455505	4337.548340
5140.570336	0.090271	0.455505	4422.673828
5140.571237	0.090172	0.455505	4503.918945
5140.572133	0.090157	0.455505	4584.700195
5140.573062	0.090194	0.455505	4668.490723
5140.573972	0.090264	0.455505	4750.630859
5140.574878	0.090198	0.455505	4832.350098
5140.575776	0.090249	0.455505	4913.393555
5141.601242	1.086138	0.446148	493.106537
5141.602147	1.541763	0.446148	1888.401855
5141.603092	1.529044	0.446148	3333.348633
5141.604008	0.853198	0.446148	4114.878418
5141.604900	0.100386	0.446148	4204.422363
5141.605791	0.090249	0.446148	4284.834473
5141.606718	0.090253	0.446148	4368.498535
5141.607625	0.090176	0.446148	4450.288086
5141.608529	0.090114	0.446148	4531.750488
5141.609417	0.090135	0.446148	4611.791016
5141.610348	0.090157	0.446148	4695.727539
5141.611260	0.090172	0.446148	4777.964355
5141.612160	0.090249	0.446148	4859.188477
5141.613045	0.090168	0.446148	4938.987793
5142.600691	1.120898	0.444887	535.789429
5142.601600	1.542378	0.444887	1937.811035
5142.602497	1.528451	0.444887	3308.831543
5142.603459	0.822645	0.444887	4100.216309
5142.604367	0.098071	0.444887	4189.265137
5142.605264	0.090150	0.444887	4270.129883
5142.606156	0.090242	0.444887	4350.625488
5142.607088	0.090212	0.444887	4434.703613
5142.608001	0.090157	0.444887	4517.017578
5142.608889	0.090168	0.444887	4597.087402
5142.609781	0.090150	0.444887	4677.501465
5142.610718	0.090227	0.444887	4762.044434
5142.611635	0.090157	0.444887	4844.718750
5142.612559	0.090238	0.444887	4928.098633
5143.640524	1.069065	0.456690	470.388550
5143.641472	1.542451	0.456690	1932.632202
5143.642419	1.527034	0.456690	3378.733154
5143.643350	0.780546	0.456690	4105.420898
5143.644247	0.097075	0.456690	4192.497559
5143.645201	0.090198	0.456690	4278.546387
5143.646138	0.090245	0.456690	4363.106445
5143.647042	0.090179	0.456690	4444.628906
5143.647960	0.090179	0.456690	4527.413574
5143.648894	0.090099	0.456690	4611.565918
5143.649804	0.090157	0.456690	4693.609375
5143.650691	0.090179	0.456690	4773.598633
5143.651639	0.090154	0.456690	4859.064453
5143.652577	0.090183	0.456690	4943.656250
5144.635889	1.096707	0.462861	511.065247
5144.636826	1.542612	0.462861	1956.492920
5144.637726	1.528114	0.462861	3331.795410
5144.638693	0.785629	0.462861	4091.498291
5144.639620	0.095797	0.462861	4180.302246
5144.640519	0.090092	0.462861	4261.294434
5144.641436	0.090198	0.462861	4344.005859
5144.642376	0.090157	0.462861	4428.753906
5144.643292	0.090223	0.462861	4511.398437
5144.644190	0.090242	0.462861	4592.435547
5144.645139	0.090190	0.462861	4678.026367
5144.646061	0.090201	0.462861	4761.191895
5144.646976	0.090330	0.462861	4843.843262
5144.647869	0.090150	0.462861	4924.347168
5145.666549	1.088771	0.490717	508.455933
5145.667454	1.542129	0.490717	1904.082642
5145.668389	1.528374	0.490717	3333.112305
5145.669351	0.782304	0.490717	4085.688232
5145.670272	0.096072	0.490717	4174.170410
5145.671163	0.090135	0.490717	4254.480957
5145.672078	0.090183	0.490717	4336.998535
5145.673021	0.090242	0.490717	4422.096680
5145.673941	0.090146	0.490717	4505.031250
5145.674833	0.090260	0.490717	4585.542969
5145.675766	0.090125	0.490717	4669.628906
5145.676689	0.090146	0.490717	4752.833984
5145.677604	0.090114	0.490717	4835.288086
5145.678492	0.090187	0.490717	4915.374023
5146.679296	1.107448	0.510790	542.649292
5146.680223	1.543828	0.510790	1973.777954
5146.681128	1.527946	0.510790	3356.568604
5146.682026	0.842054	0.510790	4112.733398
5146.682978	0.096335	0.510790	4204.444824
5146.683883	0.090205	0.510790	4286.080566
5146.684783	0.090220	0.510790	4367.278320
5146.685704	0.090201	0.510790	4450.354004
5146.686619	0.090311	0.510790	4532.988770
5146.687528	0.090154	0.510790	4614.938477
5146.688421	0.090238	0.510790	4695.520996
5146.689346	0.090278	0.510790	4779.028320
5146.690255	0.090242	0.510790	4861.058105
5146.691155	0.090161	0.510790	4942.203125
5147.699150	1.076082	0.521102	475.628021
5147.700125	1.543612	0.521102	1980.649780
5147.701027	1.527616	0.521102	3358.559570
5147.701932	0.843702	0.521102	4122.110352
5147.702901	0.099126	0.521102	4218.163574
5147.703814	0.090249	0.521102	4300.561035
5147.704719	0.090260	0.521102	4382.246582
5147.705611	0.090176	0.521102	4462.683594
5147.706542	0.090264	0.521102	4546.719238
5147.707454	0.090223	0.521102	4629.002930
5147.708356	0.090161	0.521102	4710.328125
5147.709244	0.090267	0.521102	4790.485352
5147.710197	0.090253	0.521102	4876.496094
5147.711097	0.090183	0.521102	4957.661133
5148.728305	1.120726	0.500312	532.345032
5148.729215	1.543224	0.500312	1936.678711
5148.730157	1.527931	0.500312	3375.989746
5148.731075	0.799244	0.500312	4109.696289
5148.732003	0.096218	0.500312	4198.986816
5148.732891	0.090077	0.500312	4278.975098
5148.733846	0.090146	0.500312	4365.064941
5148.734757	0.090114	0.500312	4447.158203
5148.735678	0.090256	0.500312	4530.284180
5148.736569	0.090220	0.500312	4610.669922
5148.737524	0.090135	0.500312	4696.749512
5148.738452	0.090212	0.500312	4780.466797
5148.739343	0.090286	0.500312	4860.911133
5148.740275	0.090172	0.500312	4944.951660
5149.733900	1.129940	0.506407	552.540710
5149.734803	1.542924	0.506407	1945.800781
5149.735728	1.528242	0.506407	3359.424805
5149.736636	0.819803	0.506407	4103.806152
5149.737580	0.096617	0.506407	4195.013184
5149.738499	0.090146	0.506407	4277.857910
5149.739392	0.090183	0.506407	4358.391602
5149.740324	0.090205	0.506407	4442.462891
5149.741233	0.090157	0.506407	4524.416016
5149.742151	0.090216	0.506407	4607.234375
5149.743037	0.090172	0.506407	4687.126953
5149.743983	0.090223	0.506407	4772.478516
5149.744899	0.090114	0.506407	4855.022461
5149.745790	0.090227	0.506407	4935.414551
5150.769608	1.058577	0.478910	458.363708
5150.770549	1.540360	0.478910	1907.842529
5150.771480	1.528813	0.478910	3331.167969
5150.772417	0.815988	0.478910	4095.748291
5150.773307	0.098569	0.478910	4183.475098
5150.774233	0.090176	0.478910	4266.978027
5150.775173	0.090194	0.478910	4351.760254
5150.776088	0.090150	0.478910	4434.247559
5150.776985	0.090245	0.478910	4515.197754
5150.777905	0.090150	0.478910	4598.135742
5150.778840	0.090125	0.478910	4682.402344
5150.779756	0.090286	0.478910	4765.104004
5150.780649	0.090077	0.478910	4845.542480
5150.781597	0.090172	0.478910	4931.025879
5151.772135	1.102408	0.492224	504.903046
5151.773048	1.542187	0.492224	1912.920166
5151.773974	1.528748	0.492224	3328.540527
5151.774925	0.793341	0.492224	4083.007812
5151.775868	0.095592	0.492224	4173.150879
5151.776766	0.090183	0.492224	4254.135254
5151.777696	0.090179	0.492224	4338.001953
5151.778635	0.090066	0.492224	4422.573730
5151.779547	0.090139	0.492224	4504.780762
5151.780434	0.090125	0.492224	4584.721191
5151.781369	0.090176	0.492224	4669.035645
5151.782304	0.090183	0.492224	4753.356934
5151.783202	0.090128	0.492224	4834.291992
5151.784117	0.090150	0.492224	4916.779297
5152.797639	1.064451	0.480513	464.100464
5152.798599	1.542210	0.480513	1944.621582
5152.799540	1.526561	0.480513	3381.115723
5152.800451	0.801379	0.480513	4111.172363
5152.801374	0.097698	0.480513	4201.347168
5152.802314	0.090161	0.480513	4286.098633
5152.803229	0.090242	0.480513	4368.669922
5152.804117	0.090168	0.480513	4448.739746
5152.805064	0.090168	0.480513	4534.129395
5152.805999	0.090253	0.480513	4618.515625
5152.806898	0.090168	0.480513	4699.577148
5152.807810	0.090190	0.480513	4781.831055
5152.808737	0.090231	0.480513	4865.475098
5152.809670	0.090161	0.480513	4949.595215
5153.810384	1.065022	0.526283	469.674713
5153.811280	1.540195	0.526283	1849.689697
5153.812245	1.529139	0.526283	3325.309082
5153.813162	0.858234	0.526283	4112.309570
5153.814056	0.100184	0.526283	4201.874512
5153.814966	0.090168	0.526283	4283.927734
5153.815906	0.090352	0.526283	4368.858398
5153.816819	0.090223	0.526283	4451.232422
5153.817717	0.090297	0.526283	4532.318848
5153.818652	0.090304	0.526283	4616.752930
5153.819560	0.090293	0.526283	4698.738770
5153.820456	0.090216	0.526283	4779.572266
5153.821341	0.090234	0.526283	4859.429687
5153.822286	0.090308	0.526283	4944.770508
5154.824653	1.077953	0.504216	477.533173
5154.825622	1.543374	0.504216	1973.062622
5154.826538	1.527927	0.504216	3372.644043
5154.827441	0.827659	0.504216	4120.020020
5154.828331	0.099181	0.504216	4208.291016
5154.829283	0.090242	0.504216	4294.201172
5154.830189	0.090190	0.504216	4375.913574
5154.831082	0.090117	0.504216	4456.388184
5154.832007	0.090293	0.504216	4539.909180
5154.832918	0.090220	0.504216	4622.099121
5154.833820	0.090223	0.504216	4703.480469
5154.834712	0.090125	0.504216	4783.871582
5154.835648	0.090234	0.504216	4868.331055
5154.836554	0.090245	0.504216	4950.093262
5155.856858	1.077590	0.562550	485.993256
5155.857760	1.541254	0.562550	1876.204102
5155.858659	1.530169	0.562550	3251.825684
5155.859633	0.847247	0.562550	4077.044434
5155.860530	0.099272	0.562550	4166.091797
5155.861419	0.090161	0.562550	4246.245117
5155.862339	0.090260	0.562550	4329.284180
5155.863260	0.090216	0.562550	4412.373047
5155.864156	0.090070	0.562550	4493.075195
5155.865045	0.090231	0.562550	4573.290527
5155.865975	0.090209	0.562550	4657.184570
5155.866885	0.090172	0.562550	4739.241211
5155.867802	0.090205	0.562550	4821.959473
5155.868698	0.090227	0.562550	4902.802734
5156.850653	1.087156	0.485053	499.004517
5156.851599	1.543528	0.485053	1959.181885
5156.852494	1.528184	0.485053	3326.906250
5156.853467	0.771182	0.485053	4077.266113
5156.854394	0.095764	0.485053	4166.039551
5156.855285	0.090139	0.485053	4246.353516
5156.856218	0.090260	0.485053	4330.565918
5156.857111	0.090223	0.485053	4411.135254
5156.858031	0.090220	0.485053	4494.137207
5156.858931	0.090198	0.485053	4575.314941
5156.859877	0.090198	0.485053	4660.642090
5156.860782	0.090165	0.485053	4742.241211
5156.861703	0.090260	0.485053	4825.370605
5156.862595	0.090161	0.485053	4905.794434
5157.901287	1.078755	0.519818	499.463531
5157.902203	1.542371	0.519818	1912.275024
5157.903100	1.529795	0.519818	3284.500977
5157.904045	0.847958	0.519818	4085.821045
5157.904984	0.098470	0.519818	4178.284668
5157.905910	0.090198	0.519818	4261.807617
5157.906798	0.090264	0.519818	4341.961914
5157.907739	0.090227	0.519818	4426.865723
5157.908675	0.090223	0.519818	4511.314941
5157.909576	0.090260	0.519818	4592.639160
5157.910503	0.090227	0.519818	4676.279785
5157.911441	0.090275	0.519818	4760.957520
5157.912356	0.090183	0.519818	4843.475098
5157.913257	0.090223	0.519818	4924.766602
5158.882765	1.070233	0.469476	470.902557
5158.883705	1.540221	0.469476	1918.710327
5158.884651	1.527459	0.469476	3363.686035
5158.885602	0.762656	0.469476	4088.972168
5158.886500	0.096405	0.469476	4175.543945
5158.887424	0.090165	0.469476	4258.856445
5158.888360	0.090209	0.469476	4343.291992
5158.889286	0.090260	0.469476	4426.872559
5158.890175	0.090249	0.469476	4507.104004
5158.891120	0.090176	0.469476	4592.320312
5158.892054	0.090168	0.469476	4676.537598
5158.892969	0.090220	0.469476	4759.088867
5158.893859	0.090286	0.469476	4839.442871
5158.894789	0.090363	0.469476	4923.479980
5159.936973	1.063997	0.487341	468.158478
5159.937870	1.540510	0.487341	1849.996094
5159.938833	1.529180	0.487341	3322.596191
5159.939748	0.863218	0.487341	4112.440430
5159.940634	0.101056	0.487341	4201.976074
5159.941577	0.090216	0.487341	4287.049805
5159.942490	0.090297	0.487341	4369.490723
5159.943381	0.090260	0.487341	4449.912598
5159.944273	0.090300	0.487341	4530.460449
5159.945203	0.090322	0.487341	4614.459961
5159.946116	0.090297	0.487341	4696.900879
5159.947013	0.090304	0.487341	4777.903320
5159.947901	0.090271	0.487341	4858.063965
5159.948850	0.090311	0.487341	4943.769531
5160.924627	1.074481	0.475168	481.367615
5160.925606	1.544084	0.475168	1993.026367
5160.926509	1.527312	0.475168	3372.188965
5160.927444	0.782256	0.475168	4103.598145
5160.928345	0.096910	0.475168	4190.914551
5160.929311	0.090128	0.475168	4277.978516
5160.930212	0.090260	0.475168	4359.302734
5160.931104	0.090234	0.475168	4439.791992
5160.932042	0.090242	0.475168	4524.438477
5160.932952	0.090172	0.475168	4606.495117
5160.933869	0.090231	0.475168	4689.236816
5160.934757	0.090256	0.475168	4769.384277
5160.935710	0.090293	0.475168	4855.433594
5160.936602	0.090157	0.475168	4935.854004
5161.968079	1.079378	0.499281	479.243622
5161.968981	1.539976	0.499281	1868.301636
5161.969961	1.526440	0.499281	3364.213379
5161.970922	0.747312	0.499281	4082.380371
5161.971818	0.095867	0.499281	4168.276855
5161.972739	0.090081	0.499281	4251.241211
5161.973680	0.090198	0.499281	4336.117187
5161.974612	0.090128	0.499281	4420.116699
5161.975514	0.090212	0.499281	4501.488281
5161.976439	0.090128	0.499281	4584.856934
5161.977381	0.090132	0.499281	4669.761230
5161.978294	0.090168	0.499281	4752.084961
5161.979184	0.090143	0.499281	4832.312012
5161.980119	0.090187	0.499281	4916.636719
5162.966003	1.112267	0.495809	530.551331
5162.966937	1.543422	0.495809	1972.107178
5162.967872	1.526327	0.495809	3399.222656
5162.968772	0.805331	0.495809	4124.020508
5162.969703	0.097148	0.495809	4214.465820
5162.970637	0.090135	0.495809	4298.652344
5162.971557	0.090253	0.495809	4381.684570
5162.972447	0.090209	0.495809	4461.970215
5162.973383	0.090161	0.495809	4546.360840
5162.974328	0.090231	0.495809	4631.628906
5162.975234	0.090209	0.495809	4713.357910
5162.976160	0.090179	0.495809	4796.864258
5162.977095	0.090209	0.495809	4881.209473
5162.978009	0.090223	0.495809	4963.673828
5163.998198	1.114098	0.521167	525.854248
5163.999103	1.541982	0.521167	1921.348389
5164.000043	1.527393	0.521167	3357.097168
5164.000993	0.774847	0.521167	4093.202148
5164.001916	0.096072	0.521167	4181.876465
5164.002804	0.090205	0.521167	4261.978516
5164.003745	0.090205	0.521167	4346.861328
5164.004687	0.090260	0.521167	4431.886230
5164.005605	0.090190	0.521167	4514.681152
5164.006498	0.090209	0.521167	4595.237793
5164.007445	0.090183	0.521167	4680.641113
5164.008384	0.090198	0.521167	4765.336914
5164.009282	0.090176	0.521167	4846.314941
5164.010199	0.090212	0.521167	4929.039551
5165.002701	1.062759	0.526251	465.488342
5165.003598	1.539562	0.526251	1846.475342
5165.004576	1.527975	0.526251	3340.834717
5165.005504	0.824425	0.526251	4105.901367
5165.006408	0.098379	0.526251	4194.835937
5165.007343	0.090135	0.526251	4279.112793
5165.008239	0.090256	0.526251	4359.982422
5165.009131	0.090245	0.526251	4440.481445
5165.010015	0.090216	0.526251	4520.232422
5165.010954	0.090289	0.526251	4605.014160
5165.011860	0.090289	0.526251	4686.816406
5165.012757	0.090132	0.526251	4767.664551
5165.013644	0.090231	0.526251	4847.699219
5165.014604	0.090289	0.526251	4934.376953
5166.029769	1.067260	0.547802	468.526947
5166.030755	1.541129	0.547802	1988.080322
5166.031670	1.526887	0.547802	3385.182129
5166.032584	0.800962	0.547802	4117.261230
5166.033469	0.098159	0.547802	4204.132324
5166.034405	0.090330	0.547802	4288.680664
5166.035315	0.090242	0.547802	4370.800781
5166.036215	0.090249	0.547802	4452.024902
5166.037105	0.090168	0.547802	4532.274902
5166.038056	0.090450	0.547802	4618.293457
5166.038960	0.090209	0.547802	4699.842285
5166.039863	0.090253	0.547802	4781.340332
5166.040756	0.090289	0.547802	4861.968750
5166.041704	0.090220	0.547802	4947.497070
5167.038411	1.070325	0.562030	468.802246
5167.039320	1.540437	0.562030	1869.059448
5167.040213	1.530637	0.562030	3235.918457
5167.041185	0.868755	0.562030	4080.348145
5167.042097	0.100397	0.562030	4171.910156
5167.042987	0.090125	0.562030	4252.121094
5167.043872	0.090242	0.562030	4331.984863
5167.044815	0.090201	0.562030	4417.044922
5167.045711	0.090231	0.562030	4497.891602
5167.046631	0.090249	0.562030	4580.920898
5167.047528	0.090249	0.562030	4661.874512
5167.048466	0.090242	0.562030	4746.520996
5167.049383	0.090154	0.562030	4829.191895
5167.050283	0.090179	0.562030	4910.353516
5168.065024	1.102342	0.570659	540.147827
5168.065941	1.543103	0.570659	1955.173218
5168.066863	1.526448	0.570659	3362.558105
5168.067770	0.819998	0.570659	4106.295898
5168.068725	0.095728	0.570659	4197.715820
5168.069640	0.090161	0.570659	4280.213379
5168.070555	0.090190	0.570659	4362.737793
5168.071441	0.090183	0.570659	4442.640137
5168.072398	0.090176	0.570659	4528.938477
5168.073315	0.090190	0.570659	4611.643066
5168.074203	0.090201	0.570659	4691.741699
5168.075142	0.090183	0.570659	4776.423828
5168.076053	0.090242	0.570659	4858.633789
5168.076973	0.090264	0.570659	4941.676270
5169.076209	1.085131	0.592094	506.755981
5169.077123	1.542155	0.592094	1916.285278
5169.078022	1.528707	0.592094	3290.593262
5169.078998	0.790140	0.592094	4061.770264
5169.079932	0.096127	0.592094	4151.552734
5169.080828	0.090220	0.592094	4232.389648
5169.081748	0.090172	0.592094	4315.348145
5169.082684	0.090278	0.592094	4399.848633
5169.083609	0.090253	0.592094	4483.332520
5169.084499	0.090212	0.592094	4563.621582
5169.085424	0.090249	0.592094	4647.102051
5169.086351	0.090179	0.592094	4730.698242
5169.087288	0.090157	0.592094	4815.175781
5169.088189	0.090190	0.592094	4896.437500
5170.098631	1.076847	0.584154	472.735748
5170.099630	1.543451	0.584154	2014.643188
5170.100571	1.525093	0.584154	3449.755371
5170.101478	0.745745	0.584154	4126.145508
5170.102395	0.095614	0.584154	4213.823730
5170.103325	0.090081	0.584154	4297.598633
5170.104249	0.090231	0.584154	4380.971680
5170.105137	0.090135	0.584154	4461.012207
5170.106077	0.090128	0.584154	4545.732910
5170.107013	0.090128	0.584154	4630.092773
5170.107903	0.090201	0.584154	4710.372070
5170.108830	0.090132	0.584154	4793.924316
5170.109760	0.090128	0.584154	4877.743652
5170.110693	0.090168	0.584154	4961.870605
5171.110396	1.120631	0.602378	536.782288
5171.111302	1.542253	0.602378	1934.063965
5171.112211	1.527902	0.602378	3322.926514
5171.113172	0.779213	0.602378	4071.750000
5171.114118	0.095566	0.602378	4162.155762
5171.115016	0.090139	0.602378	4243.100586
5171.115932	0.090267	0.602378	4325.785645
5171.116873	0.090106	0.602378	4410.575684
5171.117813	0.090114	0.602378	4495.282227
5171.118710	0.090238	0.602378	4576.225586
5171.119630	0.090234	0.602378	4659.241211
5171.120570	0.090190	0.602378	4744.020020
5171.121489	0.090198	0.602378	4826.911621
5171.122382	0.090227	0.602378	4907.484375
5172.134878	1.089492	0.591582	495.718964
5172.135773	1.540975	0.591582	1874.891968
5172.136720	1.528766	0.591582	3322.633301
5172.137651	0.842897	0.591582	4107.370117
5172.138541	0.099639	0.591582	4196.048340
5172.139431	0.090179	0.591582	4276.308105
5172.140364	0.090231	0.591582	4360.493164
5172.141266	0.090168	0.591582	4441.825195
5172.142172	0.090227	0.591582	4523.570801
5172.143060	0.090179	0.591582	4603.650391
5172.144011	0.090216	0.591582	4689.445801
5172.144922	0.090172	0.591582	4771.592773
5172.145815	0.090194	0.591582	4852.136230
5172.146756	0.090223	0.591582	4937.036621
5173.143516	1.085969	0.601947	484.342255
5173.144432	1.541594	0.601947	1896.442627
5173.145345	1.529216	0.601947	3292.617187
5173.146245	0.911550	0.601947	4113.012695
5173.147197	0.101682	0.601947	4209.813965
5173.148110	0.090176	0.601947	4292.144531
5173.149008	0.090249	0.601947	4373.187988
5173.149895	0.090256	0.601947	4453.245605
5173.150827	0.090264	0.601947	4537.371582
5173.151733	0.090275	0.601947	4619.160645
5173.152623	0.090179	0.601947	4699.420410
5173.153545	0.090220	0.601947	4782.603027
5173.154461	0.090238	0.601947	4865.261230
5173.155373	0.090201	0.601947	4947.524902
5174.170616	1.077953	0.579437	521.729248
5174.171546	1.543125	0.579437	1956.835571
5174.172447	1.527905	0.579437	3333.478027
5174.173344	0.862441	0.579437	4107.087891
5174.174288	0.097632	0.579437	4199.252441
5174.175187	0.090143	0.579437	4280.291016
5174.176106	0.090190	0.579437	4363.175781
5174.177002	0.090205	0.579437	4443.999512
5174.177963	0.090139	0.579437	4530.623047
5174.178866	0.090106	0.579437	4611.988770
5174.179759	0.090194	0.579437	4692.532227
5174.180694	0.090187	0.579437	4776.856934
5174.181610	0.090103	0.579437	4859.390625
5174.182524	0.090168	0.579437	4941.804687
5175.176137	1.059141	0.575614	459.666992
5175.177038	1.539247	0.575614	1846.528320
5175.178009	1.527499	0.575614	3329.729492
5175.178917	0.855952	0.575614	4106.934082
5175.179808	0.100627	0.575614	4196.593262
5175.180750	0.090190	0.575614	4281.552734
5175.181652	0.090231	0.575614	4362.940918
5175.182562	0.090205	0.575614	4445.027344
5175.183460	0.090209	0.575614	4526.034668
5175.184395	0.090223	0.575614	4610.393555
5175.185293	0.090238	0.575614	4691.427246
5175.186211	0.090179	0.575614	4774.211914
5175.187106	0.090289	0.575614	4855.020996
5175.188055	0.090117	0.575614	4940.541992
5176.208356	1.087778	0.558630	491.675751
5176.209258	1.540994	0.558630	1881.652100
5176.210154	1.529429	0.558630	3252.020264
5176.211123	0.855498	0.558630	4080.997803
5176.212015	0.100089	0.558630	4170.277344
5176.212924	0.090128	0.558630	4252.204102
5176.213818	0.090231	0.558630	4332.870117
5176.214737	0.090187	0.558630	4415.751953
5176.215674	0.090253	0.558630	4500.318848
5176.216585	0.090205	0.558630	4582.495605
5176.217474	0.090227	0.558630	4662.707520
5176.218428	0.090209	0.558630	4748.766602
5176.219367	0.090161	0.558630	4833.427734
5176.220268	0.090271	0.558630	4914.761719
5177.209321	1.086335	0.540918	497.541626
5177.210218	1.541144	0.540918	1879.947632
5177.211110	1.529059	0.540918	3243.868164
5177.212071	0.860783	0.540918	4071.080078
5177.213006	0.099053	0.540918	4163.694336
5177.213909	0.090154	0.540918	4245.103027
5177.214832	0.090194	0.540918	4328.352051
5177.215770	0.090194	0.540918	4412.954102
5177.216687	0.090209	0.540918	4495.675293
5177.217577	0.090187	0.540918	4575.941406
5177.218527	0.090231	0.540918	4661.660645
5177.219464	0.090157	0.540918	4746.138184
5177.220363	0.090223	0.540918	4827.249023
5177.221279	0.090209	0.540918	4909.880371
5178.246628	1.098563	0.557909	500.944824
5178.247538	1.541744	0.557909	1903.932129
5178.248463	1.528176	0.557909	3317.495117
5178.249411	0.812124	0.557909	4087.388672
5178.250355	0.096401	0.557909	4178.391602
5178.251255	0.090187	0.557909	4259.559570
5178.252174	0.090143	0.557909	4342.400879
5178.253117	0.090234	0.557909	4427.491699
5178.254040	0.090271	0.557909	4510.812012
5178.254931	0.090209	0.557909	4591.187988
5178.255877	0.090154	0.557909	4676.473633
5178.256814	0.090095	0.557909	4760.893066
5178.257725	0.090282	0.557909	4843.140137
5178.258621	0.090212	0.557909	4923.970215
5179.245514	1.067260	0.523612	466.392426
5179.246491	1.543462	0.523612	1974.354736
5179.247406	1.526631	0.523612	3371.222168
5179.248313	0.824707	0.523612	4119.231445
5179.249240	0.098756	0.523612	4210.778320
5179.250142	0.090264	0.523612	4292.196289
5179.251044	0.090154	0.523612	4373.515137
5179.251930	0.090209	0.523612	4453.439941
5179.252861	0.090183	0.523612	4537.400391
5179.253763	0.090212	0.523612	4618.771973
5179.254668	0.090212	0.523612	4700.414062
5179.255559	0.090260	0.523612	4780.835937
5179.256516	0.090297	0.523612	4867.250000
5179.257415	0.090242	0.523612	4948.377441
5180.287459	1.087017	0.600585	496.766571
5180.288353	1.540631	0.600585	1874.090820
5180.289249	1.529293	0.600585	3244.337402
5180.290208	0.872278	0.600585	4080.851807
5180.291125	0.099657	0.600585	4172.237305
5180.292050	0.090264	0.600585	4255.731445
5180.292948	0.090220	0.600585	4336.748535
5180.293907	0.090216	0.600585	4423.265625
5180.294813	0.090157	0.600585	4504.948242
5180.295705	0.090223	0.600585	4585.427734
5180.296629	0.090315	0.600585	4668.878906
5180.297543	0.090139	0.600585	4751.266113
5180.298435	0.090161	0.600585	4831.689941
5180.299325	0.090223	0.600585	4911.988770
5181.288404	1.076506	0.545675	481.198364
5181.289305	1.540089	0.545675	1868.818726
5181.290270	1.527224	0.545675	3342.590088
5181.291190	0.817262	0.545675	4094.471191
5181.292125	0.096584	0.545675	4184.777832
5181.293012	0.090165	0.545675	4264.753906
5181.293980	0.090139	0.545675	4352.008789
5181.294875	0.090172	0.545675	4432.712891
5181.295765	0.090234	0.545675	4513.021484
5181.296705	0.090205	0.545675	4597.814453
5181.297599	0.090187	0.545675	4678.441406
5181.298516	0.090212	0.545675	4761.166016
5181.299418	0.090297	0.545675	4842.613770
5181.300360	0.090275	0.545675	4927.652344
5182.320073	1.070815	0.623720	471.158783
5182.321042	1.541386	0.623720	1964.761353
5182.321978	1.524932	0.623720	3392.097412
5182.322890	0.786189	0.623720	4109.101562
5182.323815	0.097013	0.623720	4198.838379
5182.324752	0.090117	0.623720	4283.278320
5182.325665	0.090165	0.623720	4365.598633
5182.326562	0.090293	0.623720	4446.591309
5182.327509	0.090209	0.623720	4532.019043
5182.328427	0.090117	0.623720	4614.746582
5182.329345	0.090264	0.623720	4697.608398
5182.330238	0.090168	0.623720	4778.128906
5182.331183	0.090121	0.623720	4863.292969
5182.332105	0.090179	0.623720	4946.438477
5183.334886	1.088328	0.588863	499.542389
5183.335829	1.542169	0.588863	1953.807983
5183.336729	1.526862	0.588863	3327.983398
5183.337664	0.824436	0.588863	4098.831055
5183.338603	0.097108	0.588863	4190.015625
5183.339524	0.090179	0.588863	4273.070801
5183.340410	0.090198	0.588863	4352.985840
5183.341341	0.090183	0.588863	4436.946289
5183.342268	0.090286	0.588863	4520.641113
5183.343173	0.090183	0.588863	4602.256836
5183.344086	0.090242	0.588863	4684.647461
5183.345018	0.090179	0.588863	4768.694824
5183.345959	0.090216	0.588863	4853.588379
5183.346855	0.090165	0.588863	4934.375977
5184.348649	1.093077	0.649715	509.374023
5184.349577	1.541851	0.649715	1940.211304
5184.350480	1.526858	0.649715	3318.964111
5184.351412	0.834166	0.649715	4096.407227
5184.352358	0.097057	0.649715	4188.223145
5184.353277	0.090183	0.649715	4271.101562
5184.354169	0.090220	0.649715	4351.577637
5184.355120	0.090216	0.649715	4437.373047
5184.356056	0.090103	0.649715	4521.708984
5184.356954	0.090242	0.649715	4602.746094
5184.357869	0.090260	0.649715	4685.333984
5184.358799	0.090135	0.649715	4769.160156
5184.359714	0.090143	0.649715	4851.640625
5184.360610	0.090135	0.649715	4932.401855
5185.373141	1.084662	0.581233	482.674530
5185.374050	1.540375	0.581233	1882.875244
5185.374945	1.528143	0.581233	3250.563477
5185.375924	0.836385	0.581233	4069.384766
5185.376828	0.098906	0.581233	4158.795898
5185.377725	0.090051	0.581233	4239.571777
5185.378651	0.090271	0.581233	4323.162598
5185.379554	0.090293	0.581233	4404.697266
5185.380445	0.090139	0.581233	4485.011230
5185.381333	0.090209	0.581233	4565.116699
5185.382280	0.090187	0.581233	4650.523437
5185.383169	0.090315	0.581233	4730.813477
5185.384069	0.090264	0.581233	4812.050781
5185.384958	0.090256	0.581233	4892.288574
5186.379735	1.077217	0.580698	478.284241
5186.380645	1.539888	0.580698	1879.582031
5186.381537	1.528341	0.580698	3242.862305
5186.382508	0.857380	0.580698	4075.378662
5186.383411	0.099781	0.580698	4165.481445
5186.384312	0.090154	0.580698	4246.709961
5186.385246	0.090223	0.580698	4330.978516
5186.386151	0.090304	0.580698	4412.703613
5186.387049	0.090256	0.580698	4493.753906
5186.387936	0.090234	0.580698	4573.791992
5186.388888	0.090220	0.580698	4659.681152
5186.389784	0.090253	0.580698	4740.547363
5186.390687	0.090300	0.580698	4822.088379
5186.391575	0.090179	0.580698	4902.167969
5187.410891	1.064582	0.548274	468.416290
5187.411784	1.538957	0.548274	1842.705322
5187.412745	1.527338	0.548274	3310.476562
5187.413666	0.854425	0.548274	4097.401855
5187.414555	0.100199	0.548274	4186.478516
5187.415491	0.090128	0.548274	4270.838379
5187.416395	0.090216	0.548274	4352.393555
5187.417300	0.090198	0.548274	4434.022461
5187.418189	0.090245	0.548274	4514.250488
5187.419138	0.090297	0.548274	4599.941895
5187.420049	0.090231	0.548274	4682.142090
5187.420946	0.090150	0.548274	4763.006836
5187.421831	0.090183	0.548274	4842.818848
5187.422770	0.090231	0.548274	4927.545410
5188.414429	1.079835	0.531363	484.846039
5188.415329	1.540576	0.531363	1871.364502
5188.416292	1.527447	0.531363	3342.296387
5188.417198	0.832401	0.531363	4096.451660
5188.418125	0.097870	0.531363	4187.177246
5188.419022	0.090183	0.531363	4268.071289
5188.419970	0.090135	0.531363	4353.519531
5188.420877	0.090146	0.531363	4435.282227
5188.421795	0.090165	0.531363	4518.053711
5188.422682	0.090143	0.531363	4598.010254
5188.423630	0.090220	0.531363	4683.538574
5188.424545	0.090176	0.531363	4766.049316
5188.425435	0.090172	0.531363	4846.302734
5188.426386	0.090212	0.531363	4932.094727
5189.446608	1.087288	0.564629	486.017548
5189.447584	1.542836	0.564629	1991.825195
5189.448504	1.525997	0.564629	3395.742676
5189.449410	0.801599	0.564629	4121.991699
5189.450326	0.097299	0.564629	4211.117187
5189.451263	0.090187	0.564629	4295.622070
5189.452175	0.090179	0.564629	4377.865723
5189.453063	0.090150	0.564629	4457.918945
5189.454017	0.090220	0.564629	4543.988770
5189.454955	0.090238	0.564629	4628.631836
5189.455851	0.090234	0.564629	4709.481934
5189.456780	0.090176	0.564629	4793.255371
5189.457715	0.090183	0.564629	4877.576660
5189.458645	0.090260	0.564629	4961.518555
5190.457322	1.078107	0.561865	506.710175
5190.458260	1.543154	0.561865	1954.188843
5190.459160	1.527671	0.561865	3329.092773
5190.460096	0.825022	0.561865	4101.313477
5190.461036	0.097383	0.561865	4192.853516
5190.461970	0.090135	0.561865	4277.040039
5190.462867	0.090187	0.561865	4357.937500
5190.463780	0.090198	0.561865	4440.288086
5190.464713	0.090146	0.561865	4524.394531
5190.465655	0.090238	0.561865	4609.398926
5190.466553	0.090209	0.561865	4690.406250
5190.467480	0.090117	0.561865	4773.944824
5190.468422	0.090205	0.561865	4858.917969
5190.469335	0.090297	0.561865	4941.358887
5191.479256	1.067443	0.603184	476.079376
5191.480149	1.540195	0.603184	1851.473755
5191.481112	1.527653	0.603184	3322.603271
5191.482051	0.810557	0.603184	4083.715820
5191.482978	0.096603	0.603184	4173.266602
5191.483879	0.090146	0.603184	4254.488770
5191.484829	0.090242	0.603184	4340.218262
5191.485729	0.090234	0.603184	4421.429199
5191.486633	0.090238	0.603184	4503.004395
5191.487524	0.090271	0.603184	4583.436035
5191.488471	0.090271	0.603184	4668.922852
5191.489374	0.090245	0.603184	4750.414551
5191.490269	0.090209	0.603184	4831.151367
5191.491171	0.090271	0.603184	4912.575684
5192.501244	1.088771	0.602833	530.231384
5192.502166	1.543663	0.602833	1953.489014
5192.503067	1.527850	0.602833	3330.082031
5192.503966	0.868125	0.602833	4110.526367
5192.504919	0.097639	0.602833	4203.576660
5192.505816	0.090238	0.602833	4284.520020
5192.506717	0.090234	0.602833	4365.821289
5192.507606	0.090209	0.602833	4446.017090
5192.508543	0.090267	0.602833	4530.597656
5192.509450	0.090234	0.602833	4612.440430
5192.510348	0.090245	0.602833	4693.480957
5192.511290	0.090326	0.602833	4778.567871
5192.512195	0.090377	0.602833	4860.359375
5192.513090	0.090194	0.602833	4941.083008
5193.509847	1.071178	0.613698	474.531830
5193.510748	1.540708	0.613698	1862.709717
5193.511693	1.528847	0.613698	3307.469727
5193.512617	0.857974	0.613698	4100.237305
5193.513516	0.099913	0.613698	4190.059570
5193.514407	0.090205	0.613698	4270.432129
5193.515367	0.090344	0.613698	4357.162598
5193.516274	0.090220	0.613698	4438.991699
5193.517173	0.090238	0.613698	4520.115723
5193.518061	0.090282	0.613698	4600.286133
5193.519009	0.090333	0.613698	4685.921875
5193.519905	0.090223	0.613698	4766.762207
5193.520798	0.090282	0.613698	4847.383789
5193.521725	0.090267	0.613698	4931.061523
5194.539012	1.086665	0.603159	538.985840
5194.539931	1.543671	0.603159	1957.619141
5194.540869	1.525968	0.603159	3388.977051
5194.541772	0.792634	0.603159	4104.725586
5194.542720	0.095413	0.603159	4195.176758
5194.543633	0.090143	0.603159	4277.477051
5194.544552	0.090245	0.603159	4360.412598
5194.545439	0.090183	0.603159	4440.404785
5194.546399	0.090157	0.603159	4526.956055
5194.547318	0.090242	0.603159	4609.888184
5194.548207	0.090264	0.603159	4690.132812
5194.549152	0.090209	0.603159	4775.379883
5194.550066	0.090220	0.603159	4857.840820
5194.550982	0.090198	0.603159	4940.461914
5195.541447	1.065513	0.587244	464.563507
5195.542419	1.540477	0.587244	1961.907349
5195.543337	1.526470	0.587244	3363.206543
5195.544266	0.793909	0.587244	4100.747559
5195.545161	0.097548	0.587244	4188.052734
5195.546123	0.090161	0.587244	4274.787598
5195.547045	0.090201	0.587244	4357.953125
5195.547937	0.090282	0.587244	4438.484863
5195.548856	0.090249	0.587244	4521.423828
5195.549788	0.090176	0.587244	4605.467773
5195.550709	0.090245	0.587244	4688.583984
5195.551634	0.090165	0.587244	4771.986328
5195.552525	0.090220	0.587244	4852.372070
5195.553461	0.090135	0.587244	4936.738770
5196.576202	1.072624	0.581785	474.100006
5196.577191	1.542825	0.581785	1999.953613
5196.578125	1.525536	0.581785	3424.804199
5196.579026	0.779736	0.581785	4127.346680
5196.579963	0.096665	0.581785	4217.921875
5196.580897	0.090223	0.581785	4302.190430
5196.581813	0.090187	0.581785	4384.801270
5196.582711	0.090114	0.581785	4465.723145
5196.583640	0.090117	0.581785	4549.441895
5196.584578	0.090165	0.581785	4634.016602
5196.585477	0.090311	0.581785	4715.206543
5196.586402	0.090289	0.581785	4798.724121
5196.587338	0.090132	0.581785	4883.087402
5196.588262	0.090198	0.581785	4966.430176
5197.575130	1.069797	0.562723	474.990051
5197.576023	1.540437	0.562723	1850.600342
5197.576991	1.527429	0.562723	3329.151855
5197.577919	0.815167	0.562723	4085.626953
5197.578846	0.096936	0.562723	4175.486816
5197.579733	0.090205	0.562723	4255.498535
5197.580697	0.090198	0.562723	4342.449219
5197.581635	0.090150	0.562723	4427.010254
5197.582533	0.090190	0.562723	4508.001465
5197.583460	0.090231	0.562723	4591.645508
5197.584396	0.090216	0.562723	4676.087891
5197.585312	0.090231	0.562723	4758.739258
5197.586200	0.090161	0.562723	4838.802246
5197.587139	0.090179	0.562723	4923.480957
5198.611937	1.085812	0.581668	492.958527
5198.612836	1.541433	0.581668	1878.706909
5198.613793	1.528220	0.581668	3341.213623
5198.614703	0.845555	0.581668	4110.668945
5198.615611	0.099404	0.581668	4200.928223
5198.616499	0.090223	0.581668	4281.046387
5198.617426	0.090234	0.581668	4364.693848
5198.618329	0.090286	0.581668	4446.221680
5198.619225	0.090179	0.581668	4527.022461
5198.620118	0.090242	0.581668	4607.608398
5198.621072	0.090289	0.581668	4693.744629
5198.621974	0.090234	0.581668	4775.136230
5198.622876	0.090245	0.581668	4856.537598
5198.623768	0.090245	0.581668	4937.036621
5199.610884	1.126677	0.561043	550.945190
5199.611802	1.542594	0.561043	1967.046387
5199.612703	1.526909	0.561043	3342.791504
5199.613612	0.832130	0.561043	4099.197754
5199.614558	0.096760	0.561043	4190.732910
5199.615470	0.090165	0.561043	4272.963379
5199.616371	0.090289	0.561043	4354.313965
5199.617301	0.090370	0.561043	4438.357910
5199.618205	0.090293	0.561043	4519.982910
5199.619106	0.090271	0.561043	4601.316895
5199.619996	0.090212	0.561043	4681.605957
5199.620950	0.090260	0.561043	4767.713867
5199.621850	0.090282	0.561043	4848.967773
5199.622749	0.090242	0.561043	4930.095215
5200.650750	1.092726	0.606797	536.528320
5200.651680	1.543828	0.606797	1972.288452
5200.652590	1.526122	0.606797	3361.059082
5200.653497	0.822872	0.606797	4107.404297
5200.654445	0.097808	0.606797	4200.125977
5200.655355	0.090176	0.606797	4282.186035
5200.656251	0.090223	0.606797	4363.026367
5200.657138	0.090223	0.606797	4443.054687
5200.658071	0.090308	0.606797	4527.311523
5200.658974	0.090198	0.606797	4608.760254
5200.659863	0.090278	0.606797	4689.017578
5200.660785	0.090260	0.606797	4772.237305
5200.661695	0.090183	0.606797	4854.303711
5200.662601	0.090238	0.606797	4936.059570
5201.649111	1.075920	0.577491	482.012360
5201.650007	1.540518	0.577491	1862.316040
5201.650951	1.528674	0.577491	3305.384521
5201.651884	0.849855	0.577491	4098.298828
5201.652787	0.099723	0.577491	4188.348633
5201.653678	0.090176	0.577491	4268.695312
5201.654634	0.090245	0.577491	4354.969727
5201.655533	0.090198	0.577491	4436.057617
5201.656419	0.090234	0.577491	4516.005371
5201.657350	0.090322	0.577491	4600.095215
5201.658270	0.090256	0.577491	4683.130859
5201.659176	0.090209	0.577491	4764.859863
5201.660064	0.090293	0.577491	4845.040039
5201.660992	0.090267	0.577491	4928.808105
5202.688981	1.074210	0.624054	482.320374
5202.689879	1.540657	0.624054	1865.830078
5202.690779	1.528813	0.624054	3241.762207
5202.691758	0.842058	0.624054	4066.137207
5202.692658	0.098994	0.624054	4155.231934
5202.693550	0.090154	0.624054	4235.648926
5202.694490	0.090348	0.624054	4320.576172
5202.695401	0.090286	0.624054	4402.826172
5202.696324	0.090260	0.624054	4486.136230
5202.697213	0.090267	0.624054	4566.383789
5202.698160	0.090150	0.624054	4651.755859
5202.699061	0.090194	0.624054	4733.020508
5202.699973	0.090172	0.624054	4815.257324
5202.700866	0.090245	0.624054	4895.846191
5203.687935	1.128886	0.600126	552.025024
5203.688851	1.542616	0.600126	1965.061279
5203.689782	1.525865	0.600126	3385.642090
5203.690684	0.805635	0.600126	4112.324707
5203.691649	0.095240	0.600126	4204.231934
5203.692551	0.090264	0.600126	4285.649902
5203.693470	0.090231	0.600126	4368.571777
5203.694358	0.090176	0.600126	4448.647949
5203.695310	0.090157	0.600126	4534.478027
5203.696230	0.090249	0.600126	4617.507324
5203.697118	0.090201	0.600126	4697.605957
5203.698029	0.090304	0.600126	4779.873047
5203.698960	0.090344	0.600126	4863.983398
5203.699883	0.090275	0.600126	4947.307129
5204.727254	1.074902	0.627768	474.031952
5204.728156	1.540792	0.627768	1863.826538
5204.729132	1.527601	0.627768	3354.765381
5204.730067	0.792704	0.627768	4095.943359
5204.730957	0.097324	0.627768	4182.562012
5204.731871	0.090231	0.627768	4265.032715
5204.732813	0.090150	0.627768	4349.954102
5204.733729	0.090190	0.627768	4432.568359
5204.734616	0.090278	0.627768	4512.645020
5204.735560	0.090212	0.627768	4597.805664
5204.736497	0.090205	0.627768	4682.327637
5204.737406	0.090212	0.627768	4764.330566
5204.738311	0.090216	0.627768	4845.976074
5204.739242	0.090253	0.627768	4930.001465
5205.725133	1.073005	0.622971	471.049377
5205.726111	1.542385	0.622971	1979.502197
5205.727040	1.525550	0.622971	3396.738770
5205.727939	0.806063	0.622971	4121.389648
5205.728869	0.097555	0.622971	4212.115723
5205.729811	0.090165	0.622971	4297.050781
5205.730719	0.090223	0.622971	4378.973633
5205.731621	0.090150	0.622971	4460.289062
5205.732561	0.090242	0.622971	4545.116211
5205.733490	0.090179	0.622971	4628.893066
5205.734392	0.090242	0.622971	4710.291016
5205.735314	0.090212	0.622971	4793.466797
5205.736261	0.090223	0.622971	4878.908203
5205.737181	0.090223	0.622971	4961.913574
5206.763507	1.090800	0.625662	509.403412
5206.764425	1.541733	0.625662	1924.714722
5206.765319	1.527979	0.625662	3290.727539
5206.766292	0.815262	0.625662	4083.978027
5206.767185	0.097573	0.625662	4171.110840
5206.768098	0.090146	0.625662	4253.414551
5206.768993	0.090326	0.625662	4334.256348
5206.769922	0.090267	0.625662	4418.114746
5206.770829	0.090337	0.625662	4500.050293
5206.771735	0.090179	0.625662	4581.752930
5206.772624	0.090256	0.625662	4661.990723
5206.773565	0.090319	0.625662	4746.980469
5206.774463	0.090304	0.625662	4828.073242
5206.775364	0.090253	0.625662	4909.391113
5207.762927	1.083014	0.623825	512.265564
5207.763847	1.542451	0.623825	1931.320557
5207.764765	1.527382	0.623825	3333.456787
5207.765669	0.853466	0.623825	4104.989746
5207.766623	0.098514	0.623825	4198.972656
5207.767526	0.090227	0.623825	4280.447754
5207.768424	0.090194	0.623825	4361.441895
5207.769315	0.090245	0.623825	4441.850586
5207.770256	0.090275	0.623825	4526.798828
5207.771164	0.090245	0.623825	4608.741699
5207.772063	0.090249	0.623825	4689.875488
5207.772989	0.090264	0.623825	4773.459473
5207.773895	0.090278	0.623825	4855.251465
5207.774805	0.090183	0.623825	4937.317871
5208.800278	1.134694	0.604726	583.232544
5208.801191	1.543718	0.604726	1992.647217
5208.802094	1.526385	0.604726	3370.973145
5208.802999	0.820825	0.604726	4113.819824
5208.803939	0.096702	0.604726	4204.719238
5208.804835	0.090216	0.604726	4285.552734
5208.805726	0.090242	0.604726	4365.958008
5208.806658	0.090198	0.604726	4450.022461
5208.807579	0.090227	0.604726	4533.121582
5208.808490	0.090099	0.604726	4615.201660
5208.809418	0.090212	0.604726	4698.918945
5208.810305	0.090282	0.604726	4778.999023
5208.811245	0.090205	0.604726	4863.791992
5208.812138	0.090216	0.604726	4944.354980
5209.799623	1.060151	0.625492	460.105743
5209.800570	1.540558	0.625492	1919.014038
5209.801488	1.526946	0.625492	3320.750488
5209.802414	0.840934	0.625492	4099.455078
5209.803303	0.100012	0.625492	4188.365723
5209.804257	0.090231	0.625492	4274.445801
5209.805151	0.090176	0.625492	4355.062988
5209.806062	0.090176	0.625492	4437.212891
5209.806961	0.090260	0.625492	4518.356445
5209.807907	0.090187	0.625492	4603.673340
5209.808814	0.090205	0.625492	4685.489258
5209.809739	0.090187	0.625492	4768.912109
5209.810627	0.090135	0.625492	4848.952637
5209.811583	0.090172	0.625492	4935.157227
5210.836947	1.081187	0.597081	482.209198
5210.837841	1.539954	0.597081	1858.927734
5210.838827	1.525833	0.597081	3363.398437
5210.839782	0.764081	0.597081	4093.095703
5210.840677	0.096394	0.597081	4179.368164
5210.841597	0.090128	0.597081	4262.286133
5210.842534	0.090143	0.597081	4346.750000
5210.843454	0.090245	0.597081	4429.775879
5210.844352	0.090110	0.597081	4510.694336
5210.845304	0.090106	0.597081	4596.475586
5210.846237	0.090092	0.597081	4680.531250
5210.847137	0.090117	0.597081	4761.636719
5210.848056	0.090128	0.597081	4844.464355
5210.848991	0.090139	0.597081	4928.744629
5211.835368	1.113560	0.608735	514.464539
5211.836325	1.543286	0.608735	1991.389404
5211.837245	1.525448	0.608735	3394.801514
5211.838149	0.797468	0.608735	4115.712891
5211.839099	0.096046	0.608735	4206.956543
5211.840038	0.090187	0.608735	4291.642090
5211.840935	0.090212	0.608735	4372.562500
5211.841850	0.090234	0.608735	4455.126953
5211.842779	0.090201	0.608735	4538.923828
5211.843688	0.090249	0.608735	4620.959961
5211.844588	0.090194	0.608735	4702.134766
5211.845544	0.090223	0.608735	4788.388184
5211.846474	0.090216	0.608735	4872.289062
5211.847388	0.090223	0.608735	4954.753418
5212.874697	1.065161	0.578607	466.540558
5212.875589	1.539250	0.578607	1839.552002
5212.876572	1.527290	0.578607	3340.877930
5212.877499	0.828783	0.578607	4109.159668
5212.878393	0.098925	0.578607	4197.598145
5212.879281	0.090183	0.578607	4277.680664
5212.880220	0.090297	0.578607	4362.469238
5212.881123	0.090231	0.578607	4443.947754
5212.882016	0.090289	0.578607	4524.576172
5212.882947	0.090161	0.578607	4608.516113
5212.883854	0.090286	0.578607	4690.405273
5212.884758	0.090333	0.578607	4772.066406
5212.885650	0.090205	0.578607	4852.529297
5212.886599	0.090308	0.578607	4938.231445
5213.871578	1.077729	0.594982	487.133728
5213.872470	1.540397	0.594982	1861.167725
5213.873418	1.527949	0.594982	3309.663574
5213.874334	0.862306	0.594982	4099.535645
5213.875248	0.099009	0.594982	4190.029785
5213.876144	0.090154	0.594982	4270.807617
5213.877084	0.090238	0.594982	4355.631348
5213.877992	0.090220	0.594982	4437.550781
5213.878912	0.090172	0.594982	4520.509277
5213.879804	0.090176	0.594982	4600.946289
5213.880753	0.090234	0.594982	4686.578613
5213.881648	0.090106	0.594982	4767.223633
5213.882538	0.090231	0.594982	4847.528809
5213.883470	0.090161	0.594982	4931.559082
5214.908896	1.098025	0.582800	501.797363
5214.909837	1.542894	0.582800	1953.660889
5214.910744	1.526125	0.582800	3337.856689
5214.911722	0.747781	0.582800	4069.186279
5214.912666	0.094684	0.582800	4158.567871
5214.913564	0.090139	0.582800	4239.512695
5214.914479	0.090253	0.582800	4322.093750
5214.915420	0.090139	0.582800	4406.914551
5214.916336	0.090194	0.582800	4489.532227
5214.917225	0.090179	0.582800	4569.701660
5214.918162	0.090264	0.582800	4654.278809
5214.919097	0.090187	0.582800	4738.603516
5214.919986	0.090275	0.582800	4818.857910
5214.920909	0.090154	0.582800	4902.069824
5215.909850	1.086552	0.595518	490.034760
5215.910751	1.540104	0.595518	1877.668213
5215.911726	1.525803	0.595518	3365.326172
5215.912676	0.766128	0.595518	4093.147705
5215.913574	0.096504	0.595518	4179.808105
5215.914507	0.090157	0.595518	4263.924805
5215.915447	0.090165	0.595518	4348.679687
5215.916372	0.090198	0.595518	4432.112793
5215.917265	0.090216	0.595518	4512.675781
5215.918185	0.090194	0.595518	4595.654297
5215.919124	0.090223	0.595518	4680.374023
5215.920043	0.090326	0.595518	4763.383789
5215.920939	0.090253	0.595518	4844.250000
5215.921894	0.090223	0.595518	4930.413574
5216.941509	1.061367	0.598950	463.817505
5216.942468	1.542444	0.598950	1943.021118
5216.943385	1.526499	0.598950	3342.820801
5216.944298	0.837667	0.598950	4107.610840
5216.945185	0.099503	0.598950	4195.870117
5216.946142	0.090198	0.598950	4282.189453
5216.947037	0.090135	0.598950	4362.860840
5216.947926	0.090212	0.598950	4443.059570
5216.948871	0.090366	0.598950	4528.455566
5216.949769	0.090286	0.598950	4609.532227
5216.950662	0.090264	0.598950	4690.137695
5216.951558	0.090209	0.598950	4770.964844
5216.952483	0.090278	0.598950	4854.472168
5216.953389	0.090209	0.598950	4936.201172
5217.947596	1.068918	0.630959	469.255219
5217.948493	1.539199	0.630959	1849.916992
5217.949464	1.526880	0.630959	3332.517090
5217.950386	0.841033	0.630959	4107.949219
5217.951280	0.099434	0.630959	4196.842773
5217.952236	0.090304	0.630959	4283.173340
5217.953134	0.090363	0.630959	4364.318848
5217.954029	0.090271	0.630959	4445.111328
5217.954920	0.090227	0.630959	4525.503418
5217.955857	0.090205	0.630959	4610.025391
5217.956768	0.090198	0.630959	4692.195312
5217.957666	0.090176	0.630959	4773.173340
5217.958588	0.090209	0.630959	4856.345703
5217.959507	0.090344	0.630959	4939.372070
5218.973140	1.076151	0.625053	472.430359
5218.974043	1.540261	0.625053	1863.286133
5218.974937	1.529432	0.625053	3230.598633
5218.975888	0.894829	0.625053	4081.581055
5218.976805	0.100704	0.625053	4173.926758
5218.977705	0.090190	0.625053	4255.098145
5218.978592	0.090209	0.625053	4335.113281
5218.979536	0.090282	0.625053	4420.339355
5218.980435	0.090187	0.625053	4501.417480
5218.981325	0.090227	0.625053	4581.719727
5218.982238	0.090249	0.625053	4664.117187
5218.983160	0.090194	0.625053	4747.276367
5218.984065	0.090146	0.625053	4828.858887
5218.984959	0.090212	0.625053	4909.508789
5219.988983	1.093557	0.666082	527.094543
5219.989900	1.541979	0.666082	1941.089111
5219.990800	1.527133	0.666082	3315.508301
5219.991701	0.878730	0.666082	4107.244629
5219.992652	0.097958	0.666082	4200.402344
5219.993556	0.090198	0.666082	4281.940918
5219.994454	0.090256	0.666082	4362.991211
5219.995344	0.090227	0.666082	4443.293457
5219.996293	0.090267	0.666082	4528.957031
5219.997198	0.090201	0.666082	4610.589355
5219.998113	0.090187	0.666082	4693.110352
5219.999000	0.090201	0.666082	4773.119141
5219.999953	0.090179	0.666082	4859.060059
5220.000846	0.090143	0.666082	4939.557617
5221.005255	1.063956	0.653022	461.757019
5221.006216	1.541799	0.653022	1943.426270
5221.007131	1.526620	0.653022	3340.283203
5221.008063	0.810974	0.653022	4096.111328
5221.008950	0.098547	0.653022	4183.522949
5221.009920	0.090201	0.653022	4271.018555
5221.010817	0.090201	0.653022	4351.929199
5221.011707	0.090157	0.653022	4432.169434
5221.012649	0.090267	0.653022	4517.201172
5221.013555	0.090114	0.653022	4598.844238
5221.014476	0.090220	0.653022	4681.936523
5221.015377	0.090249	0.653022	4763.250977
5221.016302	0.090238	0.653022	4846.721191
5221.017227	0.090238	0.653022	4930.191406
5222.032333	1.064780	0.647999	468.503357
5222.033229	1.539324	0.647999	1847.737549
5222.034210	1.527224	0.647999	3345.944336
5222.035162	0.798325	0.647999	4105.950195
5222.036052	0.096812	0.647999	4192.112305
5222.036970	0.090106	0.647999	4274.829590
5222.037917	0.090293	0.647999	4360.336914
5222.038838	0.090220	0.647999	4443.429199
5222.039731	0.090220	0.647999	4523.995605
5222.040660	0.090220	0.647999	4607.809570
5222.041592	0.090212	0.647999	4691.887695
5222.042509	0.090209	0.647999	4774.608887
5222.043398	0.090190	0.647999	4854.788086
5222.044351	0.090286	0.647999	4940.830078
5223.040462	1.074027	0.643060	472.571899
5223.041423	1.542239	0.643060	1954.663330
5223.042356	1.526503	0.643060	3378.890381
5223.043265	0.806528	0.643060	4112.024414
5223.044189	0.097416	0.643060	4202.036621
5223.045129	0.090209	0.643060	4286.833008
5223.046044	0.090165	0.643060	4369.333984
5223.046936	0.090194	0.643060	4449.787109
5223.047880	0.090194	0.643060	4534.930176
5223.048824	0.090231	0.643060	4620.107910
5223.049719	0.090234	0.643060	4700.867676
5223.050636	0.090289	0.643060	4783.663086
5223.051582	0.090260	0.643060	4869.048828
5223.052509	0.090212	0.643060	4952.675781
5224.073187	1.095787	0.604598	498.583282
5224.074082	1.540865	0.604598	1877.657837
5224.075033	1.527436	0.604598	3330.250000
5224.075955	0.842274	0.604598	4106.826660
5224.076856	0.099261	0.604598	4196.261230
5224.077742	0.090165	0.604598	4276.147461
5224.078677	0.090293	0.604598	4360.571289
5224.079592	0.090165	0.604598	4443.072266
5224.080490	0.090157	0.604598	4524.033691
5224.081422	0.090359	0.604598	4608.248047
5224.082334	0.090264	0.604598	4690.568359
5224.083234	0.090168	0.604598	4771.719727
5224.084124	0.090212	0.604598	4852.008789
5224.085074	0.090245	0.604598	4937.741699
5225.076193	1.091041	0.611756	498.605835
5225.077088	1.540869	0.611756	1877.683716
5225.078030	1.527707	0.611756	3316.784180
5225.078957	0.841458	0.611756	4096.815430
5225.079863	0.099097	0.611756	4186.597168
5225.080753	0.090168	0.611756	4266.847168
5225.081695	0.090315	0.611756	4351.923828
5225.082602	0.090249	0.611756	4433.779785
5225.083508	0.090154	0.611756	4515.458984
5225.084394	0.090249	0.611756	4595.419434
5225.085339	0.090293	0.611756	4680.746094
5225.086250	0.090264	0.611756	4762.976074
5225.087139	0.090205	0.611756	4843.168457
5225.088034	0.090231	0.611756	4923.924805
5226.108419	1.110223	0.586096	551.781006
5226.109343	1.543444	0.586096	1977.922974
5226.110259	1.525807	0.586096	3375.562012
5226.111160	0.817943	0.586096	4112.528809
5226.112100	0.098240	0.586096	4204.874023
5226.112998	0.090293	0.586096	4285.957031
5226.113921	0.090220	0.586096	4369.229980
5226.114809	0.090212	0.586096	4449.338379
5226.115762	0.090161	0.586096	4535.261719
5226.116660	0.090205	0.586096	4616.266113
5226.117575	0.090220	0.586096	4698.817383
5226.118465	0.090278	0.586096	4779.165039
5226.119408	0.090128	0.586096	4864.155762
5226.120312	0.090231	0.586096	4945.724121
5227.113932	1.065128	0.612465	469.721527
5227.114826	1.539324	0.612465	1845.877075
5227.115792	1.527162	0.612465	3321.115234
5227.116698	0.863192	0.612465	4103.167480
5227.117598	0.099928	0.612465	4193.102539
5227.118522	0.090216	0.612465	4276.462402
5227.119455	0.090176	0.612465	4360.596191
5227.120357	0.090172	0.612465	4441.931641
5227.121247	0.090245	0.612465	4522.250000
5227.122176	0.090179	0.612465	4606.026855
5227.123086	0.090249	0.612465	4688.153320
5227.124004	0.090216	0.612465	4770.971680
5227.124896	0.090242	0.612465	4851.467285
5227.125845	0.090242	0.612465	4937.106445
5228.139480	1.083376	0.593246	478.852386
5228.140390	1.540920	0.593246	1881.089966
5228.141288	1.529033	0.593246	3254.161621
5228.142218	0.903373	0.593246	4094.298340
5228.143150	0.100770	0.593246	4188.216309
5228.144061	0.090095	0.593246	4270.292969
5228.144955	0.090275	0.593246	4350.998535
5228.145889	0.090245	0.593246	4435.287598
5228.146803	0.090256	0.593246	4517.781738
5228.147731	0.090198	0.593246	4601.485352
5228.148627	0.090260	0.593246	4682.358398
5228.149547	0.090143	0.593246	4765.290039
5228.150481	0.090220	0.593246	4849.555176
5228.151394	0.090267	0.593246	4931.969238
5229.153271	1.087742	0.652003	512.326355
5229.154196	1.542436	0.652003	1939.080078
5229.155104	1.526711	0.652003	3325.333984
5229.156038	0.831482	0.652003	4101.937988
5229.156965	0.096907	0.652003	4191.770508
5229.157893	0.090245	0.652003	4275.518066
5229.158792	0.090348	0.652003	4356.740723
5229.159721	0.090146	0.652003	4440.486816
5229.160658	0.090223	0.652003	4525.026367
5229.161574	0.090264	0.652003	4607.708008
5229.162464	0.090245	0.652003	4688.026367
5229.163399	0.090132	0.652003	4772.299805
5229.164341	0.090227	0.652003	4857.293457
5229.165254	0.090282	0.652003	4939.720703
5230.170605	1.115123	0.625218	525.223083
5230.171523	1.542125	0.625218	1940.894043
5230.172415	1.527499	0.625218	3303.422852
5230.173362	0.827853	0.625218	4087.399414
5230.174313	0.096471	0.625218	4179.143066
5230.175223	0.090150	0.625218	4261.179687
5230.176112	0.090209	0.625218	4341.375488
5230.177057	0.090249	0.625218	4426.660645
5230.177995	0.090231	0.625218	4511.296875
5230.178920	0.090234	0.625218	4594.763672
5230.179807	0.090271	0.625218	4674.833984
5230.180740	0.090297	0.625218	4759.080566
5230.181676	0.090198	0.625218	4843.505859
5230.182578	0.090311	0.625218	4924.966797
5231.194591	1.101885	0.672036	504.663208
5231.195526	1.542257	0.672036	1946.673584
5231.196431	1.526766	0.672036	3328.397217
5231.197389	0.820177	0.672036	4114.126953
5231.198293	0.098489	0.672036	4203.160645
5231.199187	0.090205	0.672036	4283.804199
5231.200077	0.090238	0.672036	4364.116211
5231.201021	0.090238	0.672036	4449.300781
5231.201921	0.090260	0.672036	4530.534668
5231.202823	0.090176	0.672036	4611.873047
5231.203715	0.090249	0.672036	4692.375000
5231.204670	0.090308	0.672036	4778.618652
5231.205572	0.090205	0.672036	4859.983398
5231.206464	0.090179	0.672036	4940.423340
5232.202198	1.079403	0.644514	483.572571
5232.203093	1.539708	0.644514	1861.611572
5232.204037	1.527649	0.644514	3303.712158
5232.204960	0.865558	0.644514	4102.622070
5232.205863	0.100107	0.644514	4193.019043
5232.206749	0.090143	0.644514	4272.885742
5232.207686	0.090322	0.644514	4357.517578
5232.208587	0.090363	0.644514	4438.934082
5232.209482	0.090216	0.644514	4519.677246
5232.210370	0.090234	0.644514	4599.805176
5232.211317	0.090286	0.644514	4685.305664
5232.212223	0.090209	0.644514	4767.034668
5232.213120	0.090355	0.644514	4848.083496
5232.214051	0.090341	0.644514	4932.190430
5233.235412	1.080092	0.649239	483.881042
5233.236314	1.540294	0.649239	1873.226318
5233.237260	1.527429	0.649239	3318.174316
5233.238177	0.856476	0.649239	4103.562500
5233.239073	0.100283	0.649239	4193.416016
5233.239960	0.090289	0.649239	4273.502441
5233.240915	0.090355	0.649239	4359.791504
5233.241805	0.090238	0.649239	4440.103516
5233.242709	0.090183	0.649239	4521.628906
5233.243602	0.090282	0.649239	4602.250488
5233.244534	0.090223	0.649239	4686.338867
5233.245455	0.090157	0.649239	4769.374023
5233.246358	0.090231	0.649239	4850.852539
5233.247245	0.090253	0.649239	4930.906738
5234.235857	1.074880	0.646262	477.246887
5234.236757	1.539803	0.646262	1863.069824
5234.237706	1.527187	0.646262	3312.370605
5234.238643	0.835093	0.646262	4094.852539
5234.239545	0.098778	0.646262	4183.950195
5234.240434	0.090165	0.646262	4264.106934
5234.241379	0.090242	0.646262	4349.385254
5234.242271	0.090187	0.646262	4429.832031
5234.243158	0.090216	0.646262	4509.853516
5234.244087	0.090304	0.646262	4593.746094
5234.244994	0.090234	0.646262	4675.588867
5234.245901	0.090216	0.646262	4757.415039
5234.246792	0.090205	0.646262	4837.787598
5234.247723	0.090311	0.646262	4921.867187
5235.274186	1.067472	0.619426	467.552734
5235.275129	1.540334	0.619426	1920.088135
5235.276051	1.526510	0.619426	3327.530273
5235.276986	0.816958	0.619426	4091.385986
5235.277877	0.098701	0.619426	4179.328613
5235.278843	0.090150	0.619426	4266.413574
5235.279758	0.090194	0.619426	4348.941406
5235.280651	0.090300	0.619426	4429.579590
5235.281587	0.090216	0.619426	4514.021973
5235.282513	0.090194	0.619426	4597.541504
5235.283427	0.090176	0.619426	4679.962402
5235.284324	0.090201	0.619426	4760.873047
5235.285263	0.090143	0.619426	4845.517090
5235.286179	0.090223	0.619426	4928.161621
5236.271610	1.091151	0.633005	529.208313
5236.272531	1.542451	0.633005	1949.805908
5236.273451	1.525756	0.633005	3353.500977
5236.274362	0.816676	0.633005	4097.492676
5236.275314	0.095266	0.633005	4188.186035
5236.276235	0.090099	0.633005	4271.166992
5236.277159	0.090139	0.633005	4354.455566
5236.278048	0.090157	0.633005	4434.605469
5236.278994	0.090205	0.633005	4519.939453
5236.279912	0.090121	0.633005	4602.670410
5236.280833	0.090139	0.633005	4685.688477
5236.281720	0.090139	0.633005	4765.642090
5236.282660	0.090143	0.633005	4850.376465
5236.283602	0.090157	0.633005	4935.304687
5237.310445	1.096523	0.588363	509.883392
5237.311344	1.541437	0.588363	1895.635132
5237.312284	1.526444	0.588363	3330.492676
5237.313235	0.798647	0.588363	4090.006348
5237.314148	0.096500	0.588363	4178.110840
5237.315045	0.090110	0.588363	4258.939453
5237.315980	0.090172	0.588363	4343.250488
5237.316915	0.090183	0.588363	4427.571777
5237.317815	0.090139	0.588363	4508.697266
5237.318731	0.090227	0.588363	4591.345215
5237.319671	0.090146	0.588363	4676.083008
5237.320591	0.090227	0.588363	4759.091797
5237.321480	0.090150	0.588363	4839.235352
5237.322430	0.090135	0.588363	4924.864258
5238.307308	1.092803	0.624618	514.710083
5238.308210	1.541876	0.624618	1905.482422
5238.309141	1.527418	0.624618	3327.508789
5238.310098	0.788687	0.624618	4082.281738
5238.311010	0.096255	0.624618	4170.066406
5238.311905	0.090154	0.624618	4250.753906
5238.312855	0.090135	0.624618	4336.382812
5238.313787	0.090070	0.624618	4420.327637
5238.314683	0.090231	0.624618	4501.174316
5238.315597	0.090161	0.624618	4583.581543
5238.316525	0.090198	0.624618	4667.285156
5238.317442	0.090227	0.624618	4750.023437
5238.318343	0.090165	0.624618	4831.261719
5238.319266	0.090146	0.624618	4914.466797
5239.346122	1.072767	0.574603	474.163177
5239.347101	1.543865	0.574603	1985.606812
5239.348022	1.526114	0.574603	3391.158203
5239.348923	0.811058	0.574603	4121.921875
5239.349856	0.098071	0.574603	4213.422363
5239.350761	0.090220	0.574603	4295.071289
5239.351666	0.090139	0.574603	4376.647461
5239.352562	0.090198	0.574603	4457.464844
5239.353488	0.090201	0.574603	4540.991211
5239.354394	0.090220	0.574603	4622.730469
5239.355298	0.090194	0.574603	4704.266113
5239.356187	0.090264	0.574603	4784.510742
5239.357140	0.090253	0.574603	4870.521484
5239.358053	0.090143	0.574603	4952.821777
5240.343526	1.096088	0.623092	494.335541
5240.344449	1.541235	0.623092	1916.895752
5240.345359	1.527129	0.623092	3306.583008
5240.346279	0.858219	0.623092	4096.144531
5240.347215	0.097947	0.623092	4187.822754
5240.348120	0.090209	0.623092	4269.461426
5240.349011	0.090194	0.623092	4349.824219
5240.349939	0.090300	0.623092	4433.623047
5240.350846	0.090297	0.623092	4515.521973
5240.351747	0.090168	0.623092	4596.763672
5240.352636	0.090194	0.623092	4676.946289
5240.353592	0.090286	0.623092	4763.259277
5240.354498	0.090231	0.623092	4845.008301
5240.355393	0.090150	0.623092	4925.692871
5241.381339	1.087302	0.574615	491.460602
5241.382239	1.540411	0.574615	1877.830811
5241.383134	1.528235	0.574615	3245.601074
5241.384110	0.845090	0.574615	4070.409180
5241.385016	0.098884	0.574615	4159.998535
5241.385938	0.090183	0.574615	4243.147461
5241.386825	0.090209	0.574615	4323.162598
5241.387776	0.090168	0.574615	4408.912598
5241.388672	0.090194	0.574615	4489.726562
5241.389559	0.090227	0.574615	4569.757812
5241.390490	0.090242	0.574615	4653.772949
5241.391421	0.090146	0.574615	4737.699219
5241.392321	0.090183	0.574615	4818.864258
5241.393215	0.090304	0.574615	4899.596191
5242.380239	1.088115	0.612477	480.946930
5242.381226	1.543129	0.612477	2004.015015
5242.382135	1.525217	0.612477	3390.437500
5242.383034	0.817419	0.612477	4125.297852
5242.383978	0.097731	0.612477	4217.555664
5242.384894	0.090117	0.612477	4300.103027
5242.385808	0.090231	0.612477	4382.573730
5242.386694	0.090168	0.612477	4462.462891
5242.387627	0.090275	0.612477	4546.688965
5242.388530	0.090135	0.612477	4628.081543
5242.389419	0.090231	0.612477	4708.296875
5242.390335	0.090275	0.612477	4790.988281
5242.391264	0.090172	0.612477	4874.758301
5242.392165	0.090209	0.612477	4956.036133
5243.416523	1.071753	0.577833	472.643036
5243.417483	1.539825	0.577833	1950.875488
5243.418406	1.526067	0.577833	3359.435059
5243.419338	0.800314	0.577833	4105.327637
5243.420232	0.097636	0.577833	4192.613770
5243.421182	0.090176	0.577833	4278.280762
5243.422081	0.090242	0.577833	4359.408203
5243.423003	0.090256	0.577833	4442.624512
5243.423893	0.090212	0.577833	4522.913574
5243.424836	0.090168	0.577833	4607.942383
5243.425757	0.090304	0.577833	4691.112305
5243.426648	0.090205	0.577833	4771.484863
5243.427577	0.090179	0.577833	4855.261719
5243.428488	0.090168	0.577833	4937.405273
5244.415946	1.062920	0.600537	465.558899
5244.416842	1.538752	0.600537	1844.281006
5244.417814	1.526005	0.600537	3327.557617
5244.418757	0.795557	0.600537	4077.767578
5244.419682	0.096504	0.600537	4167.033691
5244.420593	0.090121	0.600537	4249.133789
5244.421532	0.090146	0.600537	4333.781250
5244.422446	0.090220	0.600537	4416.242187
5244.423335	0.090183	0.600537	4496.415039
5244.424269	0.090190	0.600537	4580.652832
5244.425184	0.090183	0.600537	4663.170410
5244.426104	0.090209	0.600537	4746.162598
5244.426993	0.090183	0.600537	4826.335449
5244.427951	0.090110	0.600537	4912.660645
5245.451762	1.108363	0.570679	524.255737
5245.452707	1.543213	0.570679	1982.591919
5245.453610	1.525840	0.570679	3360.425293
5245.454541	0.796395	0.570679	4101.869141
5245.455487	0.095859	0.570679	4192.552246
5245.456416	0.090198	0.570679	4276.346191
5245.457318	0.090231	0.570679	4357.734375
5245.458239	0.090183	0.570679	4440.792969
5245.459173	0.090212	0.570679	4525.051270
5245.460086	0.090264	0.570679	4607.461914
5245.460975	0.090209	0.570679	4687.657715
5245.461907	0.090234	0.570679	4771.756348
5245.462843	0.090212	0.570679	4856.195312
5245.463746	0.090293	0.570679	4937.729980
5246.451198	1.103159	0.594297	540.547974
5246.452152	1.542433	0.594297	2012.028931
5246.453068	1.524078	0.594297	3408.084717
5246.453976	0.767084	0.594297	4104.596680
5246.454902	0.096050	0.594297	4193.538574
5246.455841	0.090216	0.594297	4278.251465
5246.456751	0.090150	0.594297	4360.288086
5246.457644	0.090183	0.594297	4440.821777
5246.458589	0.090161	0.594297	4526.023926
5246.459529	0.090190	0.594297	4610.802734
5246.460425	0.090172	0.594297	4691.597168
5246.461344	0.090125	0.594297	4774.421387
5246.462277	0.090146	0.594297	4858.527832
5246.463194	0.090176	0.594297	4941.219238
5247.485945	1.115292	0.580186	540.916504
5247.486855	1.542217	0.580186	1944.333740
5247.487761	1.526960	0.580186	3327.759766
5247.488664	0.862939	0.580186	4106.994141
5247.489621	0.097386	0.580186	4200.192871
5247.490525	0.090135	0.580186	4281.675293
5247.491418	0.090359	0.580186	4362.365723
5247.492342	0.090264	0.580186	4445.769531
5247.493256	0.090304	0.580186	4528.307129
5247.494160	0.090205	0.580186	4609.852539
5247.495060	0.090297	0.580186	4691.119629
5247.495989	0.090311	0.580186	4775.019043
5247.496886	0.090271	0.580186	4855.992187
5247.497782	0.090253	0.580186	4936.858398
5248.488399	1.070259	0.585939	476.265198
5248.489354	1.542459	0.585939	1949.312988
5248.490270	1.526235	0.585939	3347.344727
5248.491179	0.839839	0.585939	4110.758301
5248.492064	0.099869	0.585939	4199.142578
5248.493019	0.090341	0.585939	4285.417969
5248.493928	0.090238	0.585939	4367.444336
5248.494820	0.090168	0.585939	4447.874512
5248.495747	0.090267	0.585939	4531.552246
5248.496649	0.090282	0.585939	4612.986816
5248.497548	0.090231	0.585939	4694.104004
5248.498439	0.090198	0.585939	4774.470215
5248.499385	0.090286	0.585939	4859.880371
5248.500295	0.090234	0.585939	4941.993652
5249.519050	1.081886	0.603300	476.029816
5249.520025	1.542916	0.603300	1980.373169
5249.520938	1.526276	0.603300	3373.862793
5249.521845	0.816914	0.603300	4114.803711
5249.522785	0.097734	0.603300	4206.673828
5249.523693	0.090209	0.603300	4288.583496
5249.524595	0.090264	0.603300	4370.001465
5249.525483	0.090315	0.603300	4450.201172
5249.526433	0.090267	0.603300	4535.955078
5249.527349	0.090238	0.603300	4618.613281
5249.528245	0.090271	0.603300	4699.496094
5249.529137	0.090337	0.603300	4780.076660
5249.530079	0.090322	0.603300	4865.160156
5249.530989	0.090271	0.603300	4947.306641
5250.527200	1.096073	0.583924	497.617096
5250.528105	1.541364	0.583924	1892.551147
5250.529006	1.528389	0.583924	3269.629395
5250.529978	0.828062	0.583924	4074.505127
5250.530877	0.098522	0.583924	4163.076172
5250.531798	0.090227	0.583924	4246.175293
5250.532688	0.090216	0.583924	4326.467773
5250.533635	0.090234	0.583924	4411.919922
5250.534532	0.090231	0.583924	4492.856934
5250.535419	0.090212	0.583924	4572.875488
5250.536364	0.090249	0.583924	4658.160645
5250.537268	0.090205	0.583924	4739.706055
5250.538186	0.090304	0.583924	4822.604980
5250.539076	0.090212	0.583924	4902.894043
5251.552219	1.088511	0.615732	490.918335
5251.553119	1.539778	0.615732	1876.718384
5251.554093	1.525437	0.615732	3362.494141
5251.555028	0.786639	0.615732	4098.001953
5251.555918	0.097427	0.615732	4184.711914
5251.556869	0.090139	0.615732	4270.434082
5251.557768	0.090216	0.615732	4351.538086
5251.558683	0.090212	0.615732	4434.082520
5251.559581	0.090275	0.615732	4515.148926
5251.560530	0.090271	0.615732	4600.815918
5251.561456	0.090234	0.615732	4684.373047
5251.562356	0.090278	0.615732	4765.623535
5251.563272	0.090282	0.615732	4848.321777
5251.564205	0.090264	0.615732	4932.537598
5252.567536	1.095784	0.594986	512.826782
5252.568473	1.542202	0.594986	1957.870117
5252.569366	1.526682	0.594986	3321.197266
5252.570310	0.816892	0.594986	4092.343262
5252.571255	0.096727	0.594986	4183.750488
5252.572168	0.090245	0.594986	4266.144531
5252.573060	0.090209	0.594986	4346.610840
5252.573998	0.090256	0.594986	4431.271484
5252.574938	0.090183	0.594986	4516.043457
5252.575857	0.090253	0.594986	4598.985840
5252.576755	0.090205	0.594986	4679.990234
5252.577702	0.090304	0.594986	4765.508301
5252.578634	0.090168	0.594986	4849.545410
5252.579533	0.090319	0.594986	4930.741699
5253.583860	1.086738	0.637126	523.807861
5253.584798	1.542506	0.637126	1970.678589
5253.585728	1.524851	0.637126	3388.790039
5253.586631	0.795187	0.637126	4106.843750
5253.587588	0.095760	0.637126	4198.486328
5253.588518	0.090168	0.637126	4282.342773
5253.589414	0.090245	0.637126	4363.202637
5253.590321	0.090278	0.637126	4445.084961
5253.591270	0.090198	0.637126	4530.682617
5253.592204	0.090300	0.637126	4615.022949
5253.593105	0.090223	0.637126	4696.314453
5253.594022	0.090187	0.637126	4779.015625
5253.594960	0.090271	0.637126	4863.689941
5253.595876	0.090319	0.637126	4946.421875
5254.607344	1.086288	0.594853	520.331909
5254.608294	1.542568	0.594853	1985.771851
5254.609216	1.524752	0.594853	3391.593262
5254.610119	0.793561	0.594853	4108.178711
5254.611064	0.095739	0.594853	4198.651367
5254.611999	0.090190	0.594853	4282.979492
5254.612926	0.090176	0.594853	4366.572266
5254.613811	0.090212	0.594853	4446.410156
5254.614749	0.090216	0.594853	4531.032715
5254.615671	0.090157	0.594853	4614.157715
5254.616592	0.090278	0.594853	4697.304199
5254.617484	0.090201	0.594853	4777.763672
5254.618427	0.090201	0.594853	4862.823730
5254.619360	0.090267	0.594853	4947.042969
5255.614967	1.131357	0.635793	544.182922
5255.615902	1.542436	0.635793	1986.361084
5255.616798	1.526649	0.635793	3354.238770
5255.617741	0.794993	0.635793	4103.916992
5255.618685	0.095885	0.635793	4194.432617
5255.619603	0.090183	0.635793	4277.220703
5255.620494	0.090300	0.635793	4357.678223
5255.621442	0.090242	0.635793	4443.227539
5255.622372	0.090234	0.635793	4527.145508
5255.623270	0.090264	0.635793	4608.202148
5255.624199	0.090234	0.635793	4692.029785
5255.625129	0.090154	0.635793	4775.873047
5255.626045	0.090315	0.635793	4858.601562
5255.626946	0.090220	0.635793	4939.889648
5256.646605	1.072749	0.600187	475.227814
5256.647502	1.539236	0.600187	1855.922363
5256.648464	1.526997	0.600187	3324.893555
5256.649420	0.794304	0.600187	4084.248291
5256.650318	0.097368	0.600187	4171.685059
5256.651239	0.090238	0.600187	4254.794434
5256.652174	0.090249	0.600187	4339.177246
5256.653086	0.090205	0.600187	4421.444336
5256.653977	0.090333	0.600187	4501.931152
5256.654931	0.090245	0.600187	4588.025391
5256.655867	0.090315	0.600187	4672.560059
5256.656769	0.090205	0.600187	4753.924805
5256.657695	0.090264	0.600187	4837.508789
5256.658634	0.090212	0.600187	4922.218262
5257.649621	1.081465	0.619675	485.577728
5257.650527	1.540056	0.619675	1880.868652
5257.651473	1.526715	0.619675	3325.141113
5257.652397	0.841003	0.619675	4102.228516
5257.653297	0.099016	0.619675	4191.342773
5257.654186	0.090231	0.619675	4271.558105
5257.655143	0.090337	0.619675	4358.010742
5257.656038	0.090249	0.619675	4438.783691
5257.656937	0.090223	0.619675	4519.894531
5257.657824	0.090330	0.619675	4600.017090
5257.658771	0.090253	0.619675	4685.486328
5257.659672	0.090253	0.619675	4766.804199
5257.660571	0.090179	0.619675	4847.875488
5257.661507	0.090216	0.619675	4932.317871
5258.684360	1.075031	0.612489	470.863373
5258.685327	1.541627	0.612489	1961.616821
5258.686248	1.525239	0.612489	3366.362305
5258.687154	0.831053	0.612489	4119.296875
5258.688040	0.099265	0.612489	4207.245605
5258.688984	0.090282	0.612489	4292.471680
5258.689898	0.090212	0.612489	4374.925781
5258.690791	0.090242	0.612489	4455.511719
5258.691732	0.090242	0.612489	4540.429199
5258.692646	0.090190	0.612489	4622.863281
5258.693551	0.090103	0.612489	4704.406250
5258.694439	0.090242	0.612489	4784.541016
5258.695376	0.090297	0.612489	4869.148926
5258.696288	0.090242	0.612489	4951.449219
5259.688469	1.119210	0.614394	574.154785
5259.689392	1.542264	0.614394	1997.664917
5259.690295	1.524811	0.614394	3374.569092
5259.691198	0.803002	0.614394	4099.679687
5259.692145	0.095504	0.614394	4190.122070
5259.693051	0.090216	0.614394	4271.857910
5259.693940	0.090220	0.614394	4352.063477
5259.694861	0.090249	0.614394	4435.182617
5259.695767	0.090209	0.614394	4516.911621
5259.696680	0.090139	0.614394	4599.208496
5259.697576	0.090326	0.614394	4680.140625
5259.698521	0.090231	0.614394	4765.408691
5259.699431	0.090198	0.614394	4847.488770
5259.700326	0.090249	0.614394	4928.261719
5260.717510	1.064216	0.641771	463.998352
5260.718411	1.538225	0.641771	1849.939209
5260.719390	1.525800	0.641771	3343.697021
5260.720305	0.828256	0.641771	4101.550781
5260.721197	0.098687	0.641771	4189.579102
5260.722129	0.090260	0.641771	4273.701660
5260.723044	0.090146	0.641771	4356.185547
5260.723961	0.090220	0.641771	4438.916992
5260.724852	0.090238	0.641771	4519.318848
5260.725794	0.090187	0.641771	4604.274902
5260.726683	0.090139	0.641771	4684.408691
5260.727576	0.090242	0.641771	4764.994629
5260.728498	0.090212	0.641771	4848.170410
5260.729424	0.090172	0.641771	4931.669922
5261.728199	1.071189	0.616227	469.180817
5261.729167	1.541609	0.616227	1961.458252
5261.730066	1.525862	0.616227	3333.208008
5261.731003	0.824308	0.616227	4105.584473
5261.731892	0.098741	0.616227	4193.365723
5261.732846	0.090242	0.616227	4279.456055
5261.733770	0.090238	0.616227	4362.835937
5261.734661	0.090198	0.616227	4443.202148
5261.735602	0.090278	0.616227	4528.153809
5261.736515	0.090304	0.616227	4610.601562
5261.737434	0.090238	0.616227	4693.530273
5261.738325	0.090201	0.616227	4773.899902
5261.739266	0.090125	0.616227	4858.707031
5261.740162	0.090209	0.616227	4939.534180
5262.749674	1.092916	0.653320	500.555634
5262.750585	1.540360	0.653320	1903.823730
5262.751480	1.527539	0.653320	3270.971191
5262.752456	0.825901	0.653320	4077.050293
5262.753359	0.098262	0.653320	4165.780762
5262.754268	0.090157	0.653320	4247.733887
5262.755165	0.090212	0.653320	4328.654297
5262.756104	0.090212	0.653320	4413.363770
5262.757024	0.090095	0.653320	4496.251465
5262.757917	0.090231	0.653320	4576.827637
5262.758848	0.090168	0.653320	4660.774414
5262.759763	0.090143	0.653320	4743.254883
5262.760685	0.090194	0.653320	4826.414062
5262.761577	0.090190	0.653320	4906.863770
5263.766995	1.069633	0.617553	475.986481
5263.767893	1.539188	0.617553	1858.177368
5263.768852	1.526946	0.617553	3322.518555
5263.769775	0.849910	0.617553	4106.985352
5263.770701	0.097969	0.617553	4197.704590
5263.771588	0.090234	0.617553	4277.742676
5263.772529	0.090172	0.617553	4362.594727
5263.773432	0.090271	0.617553	4444.109375
5263.774352	0.090264	0.617553	4527.151855
5263.775250	0.090223	0.617553	4608.172363
5263.776197	0.090183	0.617553	4693.575684
5263.777123	0.090220	0.617553	4777.119141
5263.778016	0.090187	0.617553	4857.655762
5263.778964	0.090198	0.617553	4943.163086
5264.781774	1.085900	0.648643	479.967621
5264.782756	1.541733	0.648643	1993.949829
5264.783682	1.524027	0.648643	3405.198730
5264.784586	0.787445	0.648643	4117.048828
5264.785535	0.096493	0.648643	4208.620605
5264.786457	0.090135	0.648643	4291.725586
5264.787385	0.090297	0.648643	4375.520996
5264.788276	0.090238	0.648643	4455.922852
5264.789228	0.090132	0.648643	4541.728516
5264.790151	0.090275	0.648643	4625.052246
5264.791039	0.090289	0.648643	4705.229004
5264.791961	0.090275	0.648643	4788.462402
5264.792873	0.090194	0.648643	4870.719238
5264.793796	0.090256	0.648643	4954.025879
5265.804749	1.071676	0.605286	472.609131
5265.805689	1.539166	0.605286	1919.425537
5265.806643	1.525261	0.605286	3374.524658
5265.807570	0.788654	0.605286	4105.606445
5265.808458	0.097482	0.605286	4192.170410
5265.809412	0.090183	0.605286	4278.205078
5265.810332	0.090183	0.605286	4361.173340
5265.811250	0.090271	0.605286	4444.041992
5265.812145	0.090223	0.605286	4524.791992
5265.813096	0.090187	0.605286	4610.559570
5265.814030	0.090198	0.605286	4694.804199
5265.814924	0.090227	0.605286	4775.467285
5265.815847	0.090242	0.605286	4858.760254
5265.816786	0.090209	0.605286	4943.466309
5266.814926	1.068402	0.639660	466.891693
5266.815881	1.540276	0.639660	1937.855225
5266.816829	1.524500	0.639660	3383.080811
5266.817764	0.770588	0.639660	4103.581055
5266.818652	0.096863	0.639660	4189.595215
5266.819595	0.090227	0.639660	4274.679199
5266.820531	0.090260	0.639660	4359.162598
5266.821433	0.090260	0.639660	4440.577148
5266.822358	0.090223	0.639660	4524.033691
5266.823304	0.090300	0.639660	4609.458008
5266.824220	0.090282	0.639660	4692.156250
5266.825117	0.090220	0.639660	4773.083496
5266.826064	0.090245	0.639660	4858.545898
5266.826997	0.090227	0.639660	4942.727539
5267.843542	1.092063	0.583268	491.428314
5267.844487	1.541938	0.583268	1948.560181
5267.845382	1.525961	0.583268	3314.294922
5267.846349	0.787017	0.583268	4075.339844
5267.847288	0.095951	0.583268	4165.437988
5267.848178	0.090179	0.583268	4245.697754
5267.849107	0.090154	0.583268	4329.450684
5267.850041	0.090161	0.583268	4413.661133
5267.850958	0.090209	0.583268	4496.382324
5267.851860	0.090249	0.583268	4577.787109
5267.852785	0.090216	0.583268	4661.236816
5267.853716	0.090216	0.583268	4745.228027
5267.854637	0.090271	0.583268	4828.367676
5267.855532	0.090267	0.583268	4909.156738
5268.847596	1.099691	0.641388	517.954529
5268.848504	1.540975	0.641388	1917.160156
5268.849442	1.525496	0.641388	3348.075195
5268.850385	0.785804	0.641388	4089.088867
5268.851306	0.096017	0.641388	4177.520508
5268.852196	0.090183	0.641388	4257.783691
5268.853137	0.090128	0.641388	4342.594238
5268.854073	0.090150	0.641388	4426.974609
5268.854976	0.090190	0.641388	4508.416504
5268.855896	0.090201	0.641388	4591.401855
5268.856815	0.090216	0.641388	4674.310547
5268.857746	0.090209	0.641388	4758.294922
5268.858647	0.090190	0.641388	4839.556641
5268.859586	0.090187	0.641388	4924.242187
5269.879804	1.095044	0.595159	532.191406
5269.880742	1.541906	0.595159	1978.498779
5269.881673	1.523947	0.595159	3397.292969
5269.882568	0.792008	0.595159	4106.140137
5269.883514	0.095746	0.595159	4196.715820
5269.884453	0.090125	0.595159	4281.342773
5269.885349	0.090267	0.595159	4362.222168
5269.886266	0.090234	0.595159	4444.967285
5269.887209	0.090183	0.595159	4530.009766
5269.888121	0.090315	0.595159	4612.376953
5269.889009	0.090216	0.595159	4692.488770
5269.889945	0.090183	0.595159	4776.900391
5269.890876	0.090190	0.595159	4860.867676
5269.891799	0.090216	0.595159	4944.137207
5270.883828	1.105983	0.622798	519.811829
5270.884740	1.540301	0.622798	1924.566650
5270.885635	1.525712	0.622798	3290.078613
5270.886613	0.786284	0.622798	4059.064453
5270.887557	0.095709	0.622798	4149.414062
5270.888472	0.090143	0.622798	4231.894531
5270.889361	0.090242	0.622798	4312.119629
5270.890311	0.090275	0.622798	4397.880371
5270.891214	0.090220	0.622798	4479.348633
5270.892111	0.090238	0.622798	4560.291992
5270.892998	0.090231	0.622798	4640.326660
5270.893947	0.090249	0.622798	4725.973145
5270.894847	0.090205	0.622798	4807.157715
5270.895749	0.090260	0.622798	4888.572266
5271.919052	1.060781	0.580166	459.318268
5271.919994	1.538082	0.580166	1908.191650
5271.920914	1.526137	0.580166	3312.237305
5271.921829	0.866371	0.580166	4104.966797
5271.922719	0.100745	0.580166	4194.629395
5271.923674	0.090234	0.580166	4280.803223
5271.924567	0.090267	0.580166	4361.412109
5271.925464	0.090293	0.580166	4442.404785
5271.926352	0.090253	0.580166	4522.549316
5271.927295	0.090341	0.580166	4607.740234
5271.928202	0.090256	0.580166	4689.602539
5271.929103	0.090216	0.580166	4770.887207
5271.930035	0.090308	0.580166	4855.053711
5271.930931	0.090337	0.580166	4935.995605
5272.918982	1.060580	0.624119	460.291626
5272.919928	1.538580	0.624119	1915.788574
5272.920835	1.526349	0.624119	3300.187012
5272.921740	0.890112	0.624119	4105.738770
5272.922626	0.102667	0.624119	4196.702148
5272.923578	0.090275	0.624119	4282.643555
5272.924473	0.090271	0.624119	4363.436035
5272.925383	0.090300	0.624119	4445.609375
5272.926273	0.090286	0.624119	4525.963379
5272.927235	0.090370	0.624119	4612.899414
5272.928142	0.090216	0.624119	4694.725586
5272.929040	0.090311	0.624119	4775.825195
5272.929971	0.090363	0.624119	4859.952637
5272.930872	0.090286	0.624119	4941.299805
5273.956301	1.064136	0.570925	467.155548
5273.957276	1.541499	0.570925	1970.117065
5273.958197	1.523540	0.570925	3373.297363
5273.959106	0.809253	0.570925	4108.908203
5273.960012	0.098115	0.570925	4197.800781
5273.960942	0.090198	0.570925	4281.684570
5273.961836	0.090209	0.570925	4362.331055
5273.962722	0.090267	0.570925	4442.308105
5273.963659	0.090234	0.570925	4526.857910
5273.964580	0.090227	0.570925	4609.957031
5273.965476	0.090209	0.570925	4690.784180
5273.966367	0.090179	0.570925	4771.134277
5273.967298	0.090322	0.570925	4855.224121
5273.968208	0.090168	0.570925	4937.277344
5274.955719	1.060997	0.616066	463.655853
5274.956616	1.537255	0.616066	1842.573242
5274.957602	1.524488	0.616066	3345.718750
5274.958543	0.782662	0.616066	4082.204102
5274.959465	0.096237	0.616066	4170.934082
5274.960352	0.090121	0.616066	4250.871094
5274.961309	0.090139	0.616066	4337.134277
5274.962208	0.090223	0.616066	4418.245117
5274.963098	0.090264	0.616066	4498.579590
5274.964045	0.090275	0.616066	4584.069824
5274.964949	0.090227	0.616066	4665.635254
5274.965862	0.090176	0.616066	4747.965820
5274.966757	0.090216	0.616066	4828.708984
5274.967714	0.090223	0.616066	4915.052734
5275.993558	1.071218	0.562401	477.763336
5275.994450	1.538412	0.562401	1850.026733
5275.995407	1.525422	0.562401	3309.855957
5275.996341	0.823876	0.562401	4079.355957
5275.997236	0.098423	0.562401	4167.444336
5275.998150	0.090190	0.562401	4249.878418
5275.999098	0.090267	0.562401	4335.451660
5276.000017	0.090267	0.562401	4418.407227
5276.000905	0.090154	0.562401	4498.463867
5276.001849	0.090183	0.562401	4583.596680
5276.002787	0.090220	0.562401	4668.222656
5276.003706	0.090264	0.562401	4751.174805
5276.004595	0.090275	0.562401	4831.429199
5276.005529	0.090187	0.562401	4915.663574
5276.994509	1.068556	0.600130	470.164551
5276.995474	1.540151	0.600130	1956.410645
5276.996404	1.524723	0.600130	3374.402832
5276.997314	0.803415	0.600130	4105.510742
5276.998239	0.097892	0.600130	4196.060547
5276.999185	0.090220	0.600130	4281.408203
5277.000126	0.090256	0.600130	4366.339355
5277.001022	0.090216	0.600130	4447.172852
5277.001944	0.090135	0.600130	4530.277832
5277.002872	0.090231	0.600130	4614.011719
5277.003796	0.090220	0.600130	4697.374512
5277.004696	0.090289	0.600130	4778.634766
5277.005612	0.090223	0.600130	4861.279297
5277.006555	0.090194	0.600130	4946.332520
5278.028743	1.060331	0.557821	462.304199
5278.029718	1.541499	0.557821	1965.265747
5278.030635	1.524239	0.557821	3362.993164
5278.031551	0.808217	0.557821	4103.319336
5278.032437	0.098287	0.557821	4190.401855
5278.033389	0.090220	0.557821	4276.291016
5278.034301	0.090154	0.557821	4358.511230
5278.035194	0.090234	0.557821	4439.090332
5278.036127	0.090370	0.557821	4523.405273
5278.037028	0.090282	0.557821	4604.749512
5278.037927	0.090183	0.557821	4685.824219
5278.038822	0.090256	0.557821	4766.603516
5278.039770	0.090374	0.557821	4852.277832
5278.040675	0.090249	0.557821	4933.953125
5279.030215	1.066864	0.614463	461.952118
5279.031122	1.538108	0.614463	1857.016113
5279.032017	1.527653	0.614463	3224.265137
5279.032983	0.877013	0.614463	4071.459473
5279.033884	0.100682	0.614463	4162.174316
5279.034788	0.090216	0.614463	4243.729492
5279.035676	0.090205	0.614463	4323.831543
5279.036613	0.090311	0.614463	4408.453125
5279.037521	0.090278	0.614463	4490.425781
5279.038410	0.090253	0.614463	4570.660645
5279.039348	0.090286	0.614463	4655.348633
5279.040256	0.090271	0.614463	4737.314453
5279.041154	0.090227	0.614463	4818.338379
5279.042048	0.090128	0.614463	4898.913086
5280.062973	1.094279	0.567456	536.196472
5280.063891	1.541583	0.567456	1951.369873
5280.064794	1.525770	0.567456	3329.140381
5280.065694	0.857054	0.567456	4100.489258
5280.066638	0.096987	0.567456	4192.045410
5280.067548	0.090220	0.567456	4274.145508
5280.068451	0.090187	0.567456	4355.583984
5280.069341	0.090205	0.567456	4435.866699
5280.070295	0.090249	0.567456	4521.964355
5280.071198	0.090231	0.567456	4603.442871
5280.072089	0.090234	0.567456	4683.841797
5280.073030	0.090359	0.567456	4768.869629
5280.073936	0.090245	0.567456	4850.631836
5280.074829	0.090300	0.567456	4931.270020
5281.067989	1.087181	0.616852	487.057251
5281.068917	1.540126	0.616852	1916.293945
5281.069828	1.525327	0.616852	3305.867187
5281.070808	0.773745	0.616852	4064.137451
5281.071724	0.096024	0.616852	4152.095703
5281.072612	0.090176	0.616852	4232.171875
5281.073546	0.090209	0.616852	4316.426758
5281.074456	0.090227	0.616852	4398.533203
5281.075374	0.090227	0.616852	4481.361816
5281.076264	0.090271	0.616852	4561.703125
5281.077224	0.090260	0.616852	4648.352539
5281.078121	0.090165	0.616852	4729.230469
5281.079035	0.090150	0.616852	4811.627930
5281.079926	0.090198	0.616852	4891.994141
5282.096592	1.075825	0.576786	478.742157
5282.097533	1.538555	0.576786	1926.522095
5282.098493	1.523899	0.576786	3389.465088
5282.099419	0.773097	0.576786	4105.353027
5282.100307	0.096866	0.576786	4191.370605
5282.101248	0.090132	0.576786	4276.184570
5282.102182	0.090278	0.576786	4360.504395
5282.103099	0.090242	0.576786	4443.255859
5282.103996	0.090227	0.576786	4524.189453
5282.104949	0.090311	0.576786	4610.255859
5282.105888	0.090253	0.576786	4695.002930
5282.106789	0.090253	0.576786	4776.320801
5282.107703	0.090282	0.576786	4858.838379
5282.108647	0.090238	0.576786	4944.022949
5283.106258	1.070306	0.636470	473.075439
5283.107161	1.538419	0.636470	1862.267944
5283.108055	1.526938	0.636470	3227.351074
5283.109025	0.853425	0.636470	4055.173584
5283.109968	0.098221	0.636470	4147.796387
5283.110864	0.090194	0.636470	4228.610352
5283.111791	0.090183	0.636470	4312.209961
5283.112735	0.090242	0.636470	4397.397949
5283.113644	0.090205	0.636470	4479.394531
5283.114542	0.090234	0.636470	4560.424805
5283.115490	0.090198	0.636470	4645.932129
5283.116424	0.090282	0.636470	4730.255371
5283.117325	0.090253	0.636470	4811.573242
5283.118242	0.090220	0.636470	4894.304687
5284.129749	1.079220	0.583179	478.094482
5284.130650	1.538031	0.583179	1863.860352
5284.131545	1.526708	0.583179	3230.263672
5284.132519	0.854934	0.583179	4062.969482
5284.133413	0.100254	0.583179	4152.596680
5284.134321	0.090187	0.583179	4234.486328
5284.135207	0.090300	0.583179	4314.492187
5284.136162	0.090352	0.583179	4400.777832
5284.137077	0.090245	0.583179	4483.352539
5284.137971	0.090322	0.583179	4564.100586
5284.138864	0.090205	0.583179	4644.653809
5284.139814	0.090322	0.583179	4730.459961
5284.140713	0.090315	0.583179	4811.653320
5284.141606	0.090286	0.583179	4892.278320
5285.146065	1.088035	0.630548	485.263458
5285.147047	1.541114	0.630548	1998.637817
5285.147959	1.523141	0.630548	3387.742187
5285.148860	0.807283	0.630548	4115.104004
5285.149800	0.096174	0.630548	4205.507812
5285.150714	0.090161	0.630548	4287.915039
5285.151629	0.090297	0.630548	4370.536621
5285.152521	0.090271	0.630548	4451.058594
5285.153473	0.090245	0.630548	4536.972168
5285.154366	0.090253	0.630548	4617.567871
5285.155254	0.090319	0.630548	4697.770996
5285.156192	0.090311	0.630548	4782.482910
5285.157102	0.090227	0.630548	4864.589355
5285.158006	0.090205	0.630548	4946.134766
5286.162890	1.075778	0.596642	470.114777
5286.163863	1.540140	0.596642	1968.671387
5286.164798	1.523284	0.596642	3392.941650
5286.165703	0.804617	0.596642	4121.119629
5286.166640	0.097921	0.596642	4212.871582
5286.167548	0.090198	0.596642	4294.770996
5286.168469	0.090264	0.596642	4377.903809
5286.169368	0.090238	0.596642	4459.027832
5286.170295	0.090212	0.596642	4542.654785
5286.171213	0.090198	0.596642	4625.456543
5286.172134	0.090289	0.596642	4708.612793
5286.173027	0.090234	0.596642	4789.191895
5286.173988	0.090304	0.596642	4875.974121
5286.174907	0.090311	0.596642	4958.970215
5287.185862	1.060726	0.613411	458.233765
5287.186805	1.538573	0.613411	1909.108032
5287.187754	1.524946	0.613411	3356.281982
5287.188692	0.781333	0.613411	4089.172363
5287.189586	0.096962	0.613411	4175.855957
5287.190542	0.090231	0.613411	4262.116699
5287.191477	0.090216	0.613411	4346.468750
5287.192371	0.090355	0.613411	4427.246094
5287.193286	0.090293	0.613411	4509.864258
5287.194218	0.090278	0.613411	4594.003418
5287.195153	0.090238	0.613411	4678.375977
5287.196050	0.090300	0.613411	4759.375488
5287.196962	0.090286	0.613411	4841.715820
5287.197898	0.090231	0.613411	4926.171875
5288.197111	1.089239	0.593330	527.191895
5288.198047	1.541895	0.593330	1970.405151
5288.198976	1.523972	0.593330	3386.175293
5288.199884	0.789408	0.593330	4102.957520
5288.200831	0.095687	0.593330	4193.573242
5288.201754	0.090271	0.593330	4276.893555
5288.202667	0.090212	0.593330	4359.257324
5288.203553	0.090216	0.593330	4439.188965
5288.204492	0.090172	0.593330	4523.860352
5288.205426	0.090234	0.593330	4608.139160
5288.206319	0.090183	0.593330	4688.672852
5288.207236	0.090308	0.593330	4771.484863
5288.208173	0.090227	0.593330	4856.027832
5288.209107	0.090220	0.593330	4940.292969
5289.225720	1.088064	0.579582	517.918457
5289.226620	1.540510	0.579582	1904.377563
5289.227558	1.525627	0.579582	3335.416016
5289.228518	0.771892	0.579582	4076.432373
5289.229439	0.095149	0.579582	4164.064453
5289.230341	0.090249	0.579582	4245.469238
5289.231283	0.090231	0.579582	4330.466797
5289.232215	0.090212	0.579582	4414.544922
5289.233114	0.090278	0.579582	4495.705078
5289.234021	0.090157	0.579582	4577.478027
5289.234941	0.090139	0.579582	4660.406250
5289.235880	0.090216	0.579582	4745.119141
5289.236772	0.090234	0.579582	4825.608398
5289.237690	0.090293	0.579582	4908.497559
5290.232294	1.081564	0.581684	487.785248
5290.233193	1.538862	0.581684	1871.222534
5290.234120	1.526060	0.581684	3285.879639
5290.235075	0.843318	0.581684	4091.248291
5290.235995	0.097998	0.581684	4181.406250
5290.236882	0.090157	0.581684	4261.375977
5290.237826	0.090187	0.581684	4346.512207
5290.238769	0.090267	0.581684	4431.634277
5290.239673	0.090267	0.581684	4513.235840
5290.240590	0.090187	0.581684	4595.937012
5290.241515	0.090179	0.581684	4679.353027
5290.242452	0.090249	0.581684	4763.916504
5290.243364	0.090212	0.581684	4846.190430
5290.244251	0.090275	0.581684	4926.264160
5291.262929	1.075759	0.572137	476.561371
5291.263831	1.539331	0.572137	1865.038086
5291.264777	1.526960	0.572137	3309.542725
5291.265703	0.852202	0.572137	4098.681641
5291.266603	0.099847	0.572137	4188.544434
5291.267495	0.090253	0.572137	4269.049805
5291.268438	0.090278	0.572137	4354.182129
5291.269340	0.090264	0.572137	4435.600098
5291.270239	0.090249	0.572137	4516.733887
5291.271132	0.090293	0.572137	4597.365723
5291.272083	0.090297	0.572137	4683.237793
5291.272998	0.090256	0.572137	4765.822266
5291.273895	0.090245	0.572137	4846.772461
5291.274827	0.090333	0.572137	4930.962891
5292.267977	1.072749	0.570135	472.009583
5292.268963	1.542546	0.570135	1992.960205
5292.269879	1.524470	0.570135	3389.375000
5292.270781	0.806591	0.570135	4116.919922
5292.271716	0.097903	0.570135	4208.458984
5292.272619	0.090161	0.570135	4289.874512
5292.273520	0.090275	0.570135	4371.211914
5292.274404	0.090190	0.570135	4450.940430
5292.275335	0.090308	0.570135	4535.016602
5292.276246	0.090275	0.570135	4617.256836
5292.277148	0.090242	0.570135	4698.654785
5292.278041	0.090165	0.570135	4779.171875
5292.278995	0.090297	0.570135	4865.314941
5292.279903	0.090143	0.570135	4947.164551
5293.296593	1.070277	0.574099	471.992187
5293.297499	1.538844	0.574099	1866.184814
5293.298395	1.527176	0.574099	3234.534912
5293.299358	0.868326	0.574099	4070.733398
5293.300277	0.099708	0.574099	4162.365234
5293.301195	0.090139	0.574099	4245.112793
5293.302085	0.090271	0.574099	4325.454102
5293.303036	0.090161	0.574099	4411.197266
5293.303960	0.090172	0.574099	4494.516113
5293.304847	0.090253	0.574099	4574.570312
5293.305780	0.090190	0.574099	4658.717773
5293.306698	0.090059	0.574099	4741.391602
5293.307634	0.089978	0.574099	4825.610840
5293.308526	0.090205	0.574099	4906.073730
5294.305227	1.063008	0.592875	467.723389
5294.306198	1.538932	0.592875	1962.026245
5294.307118	1.523126	0.592875	3363.302246
5294.308017	0.826765	0.592875	4106.563965
5294.308941	0.098588	0.592875	4197.659180
5294.309867	0.089850	0.592875	4280.860352
5294.310801	0.089923	0.592875	4364.848633
5294.311695	0.089934	0.592875	4445.249512
5294.312641	0.089821	0.592875	4530.219727
5294.313560	0.089908	0.592875	4612.845703
5294.314483	0.089908	0.592875	4695.831055
5294.315375	0.089963	0.592875	4776.078613
5294.316292	0.089912	0.592875	4858.527832
5294.317226	0.089905	0.592875	4942.499023
5295.329246	1.073551	0.589689	489.539276
5295.330204	1.541719	0.589689	1966.505981
5295.331129	1.523862	0.589689	3376.078613
5295.332064	0.761367	0.589689	4087.957031
5295.332977	0.096442	0.589689	4176.008301
5295.333910	0.090154	0.589689	4260.121582
5295.334845	0.090172	0.589689	4344.432617
5295.335746	0.090176	0.589689	4425.681152
5295.336669	0.090242	0.589689	4508.974121
5295.337602	0.090231	0.589689	4593.159180
5295.338518	0.090183	0.589689	4675.767090
5295.339406	0.090194	0.589689	4755.859375
5295.340344	0.090176	0.589689	4840.444336
5295.341282	0.090223	0.589689	4925.073730
5296.344062	1.127487	0.609657	545.703491
5296.345001	1.541949	0.609657	1993.593994
5296.345894	1.525177	0.609657	3355.577148
5296.346842	0.777312	0.609657	4092.468994
5296.347792	0.095266	0.609657	4182.971680
5296.348697	0.090143	0.609657	4264.550781
5296.349593	0.090216	0.609657	4345.384277
5296.350536	0.090187	0.609657	4430.430176
5296.351473	0.090220	0.609657	4514.965820
5296.352368	0.090176	0.609657	4595.673340
5296.353291	0.090117	0.609657	4678.851562
5296.354239	0.090205	0.609657	4764.366211
5296.355169	0.090198	0.609657	4848.250000
5296.356070	0.090179	0.609657	4929.501465
5297.361873	1.076854	0.600517	473.815857
5297.362771	1.538481	0.600517	1855.372070
5297.363670	1.527114	0.600517	3228.247803
5297.364649	0.847200	0.600517	4057.656250
5297.365558	0.098870	0.600517	4147.528809
5297.366455	0.090176	0.600517	4228.416504
5297.367383	0.090231	0.600517	4312.150391
5297.368291	0.090275	0.600517	4394.119629
5297.369194	0.090143	0.600517	4475.518555
5297.370089	0.090154	0.600517	4556.206055
5297.371023	0.090297	0.600517	4640.542969
5297.371930	0.090165	0.600517	4722.322266
5297.372832	0.090267	0.600517	4803.743164
5297.373721	0.090256	0.600517	4883.980957
5298.384398	1.090829	0.597633	550.868530
5298.385304	1.541481	0.597633	1947.449951
5298.386211	1.524774	0.597633	3330.420166
5298.387112	0.844329	0.597633	4091.160156
5298.388037	0.097683	0.597633	4181.517090
5298.388946	0.090165	0.597633	4263.477051
5298.389851	0.090194	0.597633	4345.102539
5298.390738	0.090179	0.597633	4425.091797
5298.391685	0.090198	0.597633	4510.509277
5298.392582	0.090278	0.597633	4591.488770
5298.393507	0.090128	0.597633	4674.857422
5298.394397	0.090209	0.597633	4755.143066
5298.395330	0.090212	0.597633	4839.311035
5298.396240	0.090205	0.597633	4921.397461
5299.396561	1.064183	0.602495	469.304871
5299.397459	1.538536	0.602495	1850.910400
5299.398385	1.526616	0.602495	3264.557129
5299.399332	0.850529	0.602495	4070.007568
5299.400260	0.097910	0.602495	4160.868164
5299.401149	0.090212	0.602495	4241.066895
5299.402084	0.090245	0.602495	4325.446289
5299.403000	0.090216	0.602495	4408.083984
5299.403921	0.090179	0.602495	4491.139160
5299.404812	0.090289	0.602495	4571.586914
5299.405762	0.090139	0.602495	4657.219238
5299.406680	0.090157	0.602495	4739.983887
5299.407569	0.090201	0.602495	4820.172852
5299.408494	0.090289	0.602495	4903.690430
5300.422644	1.081567	0.586079	507.255127
5300.423558	1.541261	0.586079	1915.967773
5300.424492	1.525737	0.586079	3341.006348
5300.425392	0.843409	0.586079	4100.074707
5300.426345	0.097273	0.586079	4192.775879
5300.427278	0.090187	0.586079	4276.919922
5300.428181	0.090154	0.586079	4358.328613
5300.429105	0.090165	0.586079	4441.641113
5300.430019	0.090227	0.586079	4524.108398
5300.430959	0.090223	0.586079	4608.918457
5300.431859	0.090209	0.586079	4690.106445
5300.432779	0.090198	0.586079	4773.088379
5300.433713	0.090201	0.586079	4857.336426
5300.434629	0.090238	0.586079	4939.994629
5301.430752	1.093781	0.602132	497.670135
5301.431656	1.539675	0.602132	1889.536743
5301.432576	1.526682	0.602132	3294.084473
5301.433517	0.837217	0.602132	4081.905518
5301.434461	0.097181	0.602132	4173.644531
5301.435353	0.090264	0.602132	4254.159668
5301.436284	0.090194	0.602132	4338.130371
5301.437208	0.090106	0.602132	4421.388672
5301.438125	0.090234	0.602132	4504.133789
5301.439020	0.090212	0.602132	4584.874023
5301.439980	0.090231	0.602132	4671.495605
5301.440915	0.090146	0.602132	4755.782715
5301.441814	0.090278	0.602132	4836.942871
5301.442733	0.090242	0.602132	4919.875000
5302.459851	1.068955	0.567231	469.271271
5302.460818	1.541869	0.567231	1960.258545
5302.461734	1.525576	0.567231	3357.686279
5302.462636	0.836957	0.567231	4112.621094
5302.463574	0.098928	0.567231	4205.415527
5302.464476	0.090267	0.567231	4286.836426
5302.465370	0.090132	0.567231	4367.414062
5302.466261	0.090165	0.567231	4447.750977
5302.467199	0.090289	0.567231	4532.442383
5302.468105	0.090227	0.567231	4614.187988
5302.469015	0.090326	0.567231	4696.384766
5302.469915	0.090249	0.567231	4777.608887
5302.470853	0.090370	0.567231	4862.375977
5302.471752	0.090253	0.567231	4943.513184
5303.465418	1.064257	0.586212	465.080109
5303.466312	1.538046	0.586212	1840.092896
5303.467270	1.526338	0.586212	3302.324707
5303.468198	0.851774	0.586212	4092.770752
5303.469093	0.099664	0.586212	4181.970215
5303.469999	0.090154	0.586212	4263.649414
5303.470905	0.090304	0.586212	4345.464844
5303.471812	0.090176	0.586212	4427.254395
5303.472709	0.090234	0.586212	4508.194824
5303.473636	0.090201	0.586212	4591.811523
5303.474536	0.090267	0.586212	4673.052246
5303.475442	0.090205	0.586212	4754.777832
5303.476329	0.090238	0.586212	4834.818848
5303.477269	0.090275	0.586212	4919.677246
5304.497159	1.103676	0.543419	550.734131
5304.498085	1.542118	0.543419	1978.735352
5304.498997	1.524269	0.543419	3368.868652
5304.499900	0.810989	0.543419	4101.191406
5304.500868	0.094878	0.543419	4193.033203
5304.501780	0.090128	0.543419	4275.229980
5304.502679	0.090201	0.543419	4356.321289
5304.503568	0.090183	0.543419	4436.494141
5304.504512	0.090308	0.543419	4521.744629
5304.505412	0.090187	0.543419	4602.912598
5304.506300	0.090245	0.543419	4683.050293
5304.507237	0.090253	0.543419	4767.617187
5304.508154	0.090227	0.543419	4850.355469
5304.509059	0.090172	0.543419	4931.961426
5305.500621	1.073302	0.581870	473.326202
5305.501591	1.540122	0.581870	1967.244507
5305.502486	1.524404	0.581870	3331.586426
5305.503387	0.859969	0.581870	4106.418945
5305.504327	0.099382	0.581870	4199.838379
5305.505228	0.090231	0.581870	4281.136230
5305.506142	0.090286	0.581870	4363.657227
5305.507041	0.090223	0.581870	4444.768066
5305.508005	0.090315	0.581870	4531.831543
5305.508904	0.090238	0.581870	4612.955566
5305.509797	0.090275	0.581870	4693.570801
5305.510723	0.090278	0.581870	4777.168457
5305.511641	0.090227	0.581870	4859.997070
5305.512534	0.090172	0.581870	4940.520996
5306.532328	1.080494	0.539987	504.590881
5306.533239	1.539965	0.539987	1907.498535
5306.534131	1.526883	0.539987	3269.478516
5306.535113	0.815632	0.539987	4070.429443
5306.536028	0.096716	0.539987	4158.924805
5306.536948	0.090125	0.539987	4241.839355
5306.537833	0.090264	0.539987	4321.722656
5306.538763	0.090220	0.539987	4405.626953
5306.539688	0.090179	0.539987	4489.042969
5306.540611	0.090187	0.539987	4572.285156
5306.541503	0.090172	0.539987	4652.718750
5306.542452	0.090154	0.539987	4738.274902
5306.543385	0.090143	0.539987	4822.377930
5306.544283	0.090297	0.539987	4903.464355
5307.536364	1.085233	0.577257	508.974335
5307.537279	1.539734	0.577257	1917.830811
5307.538175	1.526166	0.577257	3285.275391
5307.539149	0.805210	0.577257	4069.549805
5307.540097	0.095870	0.577257	4160.435059
5307.540990	0.090220	0.577257	4241.001465
5307.541915	0.090194	0.577257	4324.431152
5307.542845	0.090209	0.577257	4408.325195
5307.543767	0.090264	0.577257	4491.548340
5307.544664	0.090198	0.577257	4572.455566
5307.545604	0.090128	0.577257	4657.176270
5307.546541	0.090216	0.577257	4741.708496
5307.547467	0.090205	0.577257	4825.238281
5307.548357	0.090264	0.577257	4905.572754
5308.567510	1.082307	0.538992	482.708954
5308.568407	1.538434	0.538992	1862.684082
5308.569301	1.527023	0.538992	3227.842285
5308.570278	0.850159	0.538992	4058.447266
5308.571189	0.099053	0.538992	4148.684082
5308.572092	0.090242	0.538992	4230.172363
5308.573029	0.090341	0.538992	4314.821289
5308.573931	0.090311	0.538992	4396.282227
5308.574831	0.090242	0.538992	4477.499512
5308.575717	0.090300	0.538992	4557.505371
5308.576677	0.090326	0.538992	4644.218262
5308.577580	0.090352	0.538992	4725.805664
5308.578477	0.090286	0.538992	4806.791992
5308.579371	0.090289	0.538992	4887.510742
5309.572556	1.081403	0.560350	477.979980
5309.573536	1.541671	0.560350	1988.817749
5309.574450	1.524203	0.560350	3381.938965
5309.575358	0.805873	0.560350	4113.671387
5309.576287	0.097650	0.560350	4204.388184
5309.577193	0.090242	0.560350	4286.146973
5309.578092	0.090293	0.560350	4367.320312
5309.578979	0.090234	0.560350	4447.358398
5309.579925	0.090341	0.560350	4532.820801
5309.580826	0.090256	0.560350	4614.141602
5309.581717	0.090231	0.560350	4694.537109
5309.582613	0.090264	0.560350	4775.413574
5309.583553	0.090308	0.560350	4860.302734
5309.584463	0.090231	0.560350	4942.412598
5310.602208	1.084076	0.550920	488.918243
5310.603104	1.538221	0.550920	1867.164551
5310.604056	1.524979	0.550920	3318.944824
5310.604975	0.829237	0.550920	4081.013672
5310.605895	0.097482	0.550920	4170.696777
5310.606789	0.090278	0.550920	4251.405762
5310.607740	0.090231	0.550920	4337.215332
5310.608645	0.090293	0.550920	4418.930664
5310.609534	0.090212	0.550920	4499.129395
5310.610475	0.090227	0.550920	4584.033203
5310.611381	0.090205	0.550920	4665.758789
5310.612301	0.090216	0.550920	4748.757812
5310.613194	0.090227	0.550920	4829.330566
5310.614124	0.090187	0.550920	4913.204102
5311.608796	1.071639	0.571352	481.166107
5311.609696	1.539049	0.571352	1866.310303
5311.610639	1.526876	0.571352	3306.154541
5311.611560	0.852744	0.571352	4091.531982
5311.612483	0.098881	0.571352	4182.798828
5311.613370	0.090220	0.571352	4262.823730
5311.614314	0.090176	0.571352	4347.949707
5311.615220	0.090198	0.571352	4429.668945
5311.616150	0.090253	0.571352	4513.604004
5311.617042	0.090278	0.571352	4594.132324
5311.617958	0.090121	0.571352	4676.683105
5311.618904	0.090194	0.571352	4762.006836
5311.619821	0.090256	0.571352	4844.771973
5311.620708	0.090231	0.571352	4924.806641
5312.636879	1.068310	0.548507	472.193237
5312.637776	1.537577	0.548507	1851.399780
5312.638747	1.524192	0.548507	3331.390137
5312.639708	0.772504	0.548507	4073.766113
5312.640607	0.096420	0.548507	4160.447266
5312.641536	0.090154	0.548507	4244.200195
5312.642476	0.090216	0.548507	4329.003418
5312.643407	0.090187	0.548507	4412.967285
5312.644308	0.090179	0.548507	4494.218750
5312.645224	0.090249	0.548507	4576.886719
5312.646160	0.090139	0.548507	4661.256836
5312.647075	0.090168	0.548507	4743.760742
5312.647971	0.090267	0.548507	4824.640137
5312.648929	0.090253	0.548507	4911.102051
5313.647057	1.080403	0.550973	478.618408
5313.647963	1.538430	0.550973	1872.436035
5313.648863	1.526169	0.550973	3245.988525
5313.649843	0.830369	0.550973	4059.750000
5313.650753	0.098284	0.550973	4149.187988
5313.651650	0.090183	0.550973	4230.082031
5313.652588	0.090282	0.550973	4314.766602
5313.653489	0.090264	0.550973	4396.094238
5313.654382	0.090209	0.550973	4476.650879
5313.655270	0.090231	0.550973	4556.775879
5313.656209	0.090234	0.550973	4641.505859
5313.657106	0.090183	0.550973	4722.399902
5313.658009	0.090220	0.550973	4803.868164
5313.658900	0.090223	0.550973	4884.257324
5314.671565	1.073382	0.555996	474.435059
5314.672539	1.539031	0.555996	1973.450928
5314.673454	1.523943	0.555996	3367.858643
5314.674361	0.814852	0.555996	4106.929687
5314.675250	0.098441	0.555996	4194.443848
5314.676200	0.090282	0.555996	4280.211914
5314.677108	0.090190	0.555996	4362.104980
5314.678011	0.090183	0.555996	4443.540527
5314.678932	0.090238	0.555996	4526.649902
5314.679835	0.090315	0.555996	4608.204102
5314.680737	0.090146	0.555996	4689.516113
5314.681629	0.090216	0.555996	4769.988770
5314.682565	0.090267	0.555996	4854.479004
5314.683459	0.090205	0.555996	4935.122559
5315.685322	1.062792	0.562679	463.377228
5315.686260	1.539053	0.562679	1907.008667
5315.687186	1.525356	0.562679	3319.488770
5315.688096	0.862690	0.562679	4104.537109
5315.688981	0.101045	0.562679	4193.961914
5315.689934	0.090231	0.562679	4279.951660
5315.690833	0.090128	0.562679	4360.977051
5315.691722	0.090238	0.562679	4441.198730
5315.692653	0.090311	0.562679	4525.278320
5315.693566	0.090264	0.562679	4607.688965
5315.694471	0.090183	0.562679	4689.304687
5315.695388	0.090220	0.562679	4772.036133
5315.696278	0.090150	0.562679	4852.269531
5315.697233	0.090198	0.562679	4938.408203
5316.705247	1.083629	0.576802	486.549469
5316.706142	1.538416	0.576802	1863.431396
5316.707101	1.524965	0.576802	3325.872559
5316.708011	0.849760	0.576802	4099.153809
5316.708924	0.098558	0.576802	4189.137695
5316.709820	0.090121	0.576802	4269.885742
5316.710768	0.090242	0.576802	4355.435059
5316.711688	0.090209	0.576802	4438.427246
5316.712586	0.090179	0.576802	4519.408203
5316.713518	0.090209	0.576802	4603.482910
5316.714438	0.090139	0.576802	4686.411133
5316.715357	0.090209	0.576802	4769.312988
5316.716250	0.090212	0.576802	4849.872559
5316.717172	0.090150	0.576802	4932.991211
5317.724144	1.101237	0.555650	524.188599
5317.725103	1.541477	0.555650	2002.464966
5317.726024	1.523035	0.555650	3405.179932
5317.726935	0.765249	0.555650	4102.321777
5317.727888	0.094867	0.555650	4192.729980
5317.728822	0.090143	0.555650	4276.923340
5317.729736	0.090220	0.555650	4359.384277
5317.730625	0.090154	0.555650	4439.531250
5317.731562	0.090249	0.555650	4524.094727
5317.732494	0.090205	0.555650	4608.166016
5317.733396	0.090256	0.555650	4689.577148
5317.734320	0.090205	0.555650	4772.926758
5317.735248	0.090183	0.555650	4856.616699
5317.736171	0.090117	0.555650	4939.794922
5318.737355	1.079084	0.576617	474.797119
5318.738342	1.541814	0.576617	1996.567505
5318.739267	1.522888	0.576617	3405.239258
5318.740205	0.734495	0.576617	4094.195312
5318.741098	0.095603	0.576617	4179.568848
5318.742048	0.090132	0.576617	4265.194336
5318.742980	0.090187	0.576617	4349.248535
5318.743876	0.090234	0.576617	4430.098633
5318.744803	0.090161	0.576617	4513.678223
5318.745742	0.090179	0.576617	4598.356934
5318.746648	0.090201	0.576617	4680.079590
5318.747545	0.090176	0.576617	4760.967285
5318.748484	0.090168	0.576617	4845.635254
5318.749427	0.090172	0.576617	4930.667480
5319.762894	1.074489	0.557652	473.849426
5319.763797	1.538826	0.557652	1863.408936
5319.764694	1.527627	0.557652	3233.690430
5319.765659	0.868378	0.557652	4071.674805
5319.766566	0.100023	0.557652	4162.395996
5319.767461	0.090198	0.557652	4243.123047
5319.768368	0.090286	0.557652	4325.012207
5319.769296	0.090238	0.557652	4408.752930
5319.770208	0.090146	0.557652	4490.966309
5319.771098	0.090278	0.557652	4571.313965
5319.772038	0.090293	0.557652	4656.189453
5319.772929	0.090293	0.557652	4736.640625
5319.773824	0.090190	0.557652	4817.360840
5319.774717	0.090300	0.557652	4897.999023
5320.771535	1.070830	0.562103	475.448578
5320.772510	1.541444	0.562103	1978.356567
5320.773431	1.524009	0.562103	3381.968750
5320.774339	0.805111	0.562103	4113.009766
5320.775230	0.098060	0.562103	4200.381348
5320.776179	0.090183	0.562103	4285.965332
5320.777083	0.090245	0.562103	4367.547363
5320.777973	0.090220	0.562103	4447.842773
5320.778911	0.090212	0.562103	4532.461914
5320.779818	0.090231	0.562103	4614.301270
5320.780721	0.090253	0.562103	4695.799316
5320.781615	0.090227	0.562103	4776.462402
5320.782542	0.090190	0.562103	4860.068848
5320.783459	0.090183	0.562103	4942.766602
5321.801196	1.088251	0.554783	513.654358
5321.802108	1.540924	0.554783	1918.977051
5321.803043	1.524496	0.554783	3344.380615
5321.803977	0.801599	0.554783	4093.074219
5321.804903	0.096251	0.554783	4182.202637
5321.805793	0.090172	0.554783	4262.456055
5321.806752	0.090212	0.554783	4348.969727
5321.807651	0.090212	0.554783	4430.070801
5321.808565	0.090201	0.554783	4512.514648
5321.809465	0.090205	0.554783	4593.699219
5321.810411	0.090168	0.554783	4678.998535
5321.811330	0.090125	0.554783	4761.822754
5321.812220	0.090231	0.554783	4842.127930
5321.813152	0.090271	0.554783	4926.260742
5322.806783	1.088533	0.554868	534.469604
5322.807713	1.541700	0.554868	1968.251099
5322.808644	1.523119	0.554868	3386.274902
5322.809549	0.785977	0.554868	4097.583496
5322.810492	0.095856	0.554868	4187.975586
5322.811417	0.090121	0.554868	4271.337402
5322.812328	0.090249	0.554868	4353.554199
5322.813233	0.090194	0.554868	4435.179687
5322.814165	0.090242	0.554868	4519.285156
5322.815099	0.090128	0.554868	4603.464844
5322.815987	0.090267	0.554868	4683.622070
5322.816909	0.090201	0.554868	4766.787598
5322.817852	0.090194	0.554868	4851.840820
5322.818792	0.090146	0.554868	4936.578613
5323.837384	1.062612	0.571082	462.236359
5323.838347	1.539712	0.571082	1944.978882
5323.839253	1.525441	0.571082	3327.028320
5323.840156	0.861511	0.571082	4104.973145
5323.841045	0.100613	0.571082	4194.417969
5323.841984	0.090245	0.571082	4279.158203
5323.842894	0.090157	0.571082	4361.201660
5323.843789	0.090275	0.571082	4441.997559
5323.844715	0.090256	0.571082	4525.574707
5323.845625	0.090245	0.571082	4607.697754
5323.846526	0.090201	0.571082	4688.969238
5323.847419	0.090278	0.571082	4769.587891
5323.848364	0.090267	0.571082	4854.890625
5323.849263	0.090271	0.571082	4936.044434
5324.844492	1.075287	0.549655	474.201508
5324.845454	1.541118	0.549655	1956.757202
5324.846359	1.525829	0.549655	3337.632324
5324.847261	0.857472	0.549655	4111.072266
5324.848188	0.099298	0.549655	4203.121582
5324.849096	0.090231	0.549655	4285.051270
5324.850001	0.090220	0.549655	4366.700195
5324.850890	0.090249	0.549655	4446.931641
5324.851839	0.090267	0.549655	4532.595215
5324.852744	0.090260	0.549655	4614.280762
5324.853636	0.090234	0.549655	4694.770020
5324.854548	0.090165	0.549655	4777.000488
5324.855465	0.090311	0.549655	4859.815918
5324.856375	0.090238	0.549655	4941.932617
5325.872099	1.096278	0.569604	498.806519
5325.873023	1.541195	0.569604	1922.870728
5325.873922	1.527253	0.569604	3295.871582
5325.874840	0.877343	0.569604	4101.271973
5325.875759	0.099203	0.569604	4192.439453
5325.876669	0.090154	0.569604	4274.479492
5325.877559	0.090264	0.569604	4354.813965
5325.878492	0.090352	0.569604	4439.111816
5325.879404	0.090209	0.569604	4521.382324
5325.880303	0.090253	0.569604	4602.519531
5325.881192	0.090216	0.569604	4682.721680
5325.882121	0.090234	0.569604	4766.549316
5325.883026	0.090212	0.569604	4848.191406
5325.883926	0.090212	0.569604	4929.382812
5326.883293	1.091810	0.537119	497.865479
5326.884225	1.541565	0.537119	1934.604004
5326.885119	1.526821	0.537119	3299.582031
5326.886082	0.819437	0.537119	4088.700195
5326.886973	0.098075	0.537119	4176.084961
5326.887866	0.090106	0.537119	4256.549805
5326.888810	0.090168	0.537119	4341.668945
5326.889712	0.090172	0.537119	4423.004395
5326.890631	0.090227	0.537119	4505.922852
5326.891525	0.090150	0.537119	4586.517090
5326.892463	0.090183	0.537119	4671.108887
5326.893361	0.090066	0.537119	4751.988281
5326.894284	0.090190	0.537119	4835.233887
5326.895181	0.090249	0.537119	4916.187500
5327.905223	1.067219	0.581040	467.442047
5327.906191	1.542228	0.581040	1960.318604
5327.907126	1.524946	0.581040	3386.143311
5327.908031	0.803167	0.581040	4113.008789
5327.908948	0.097793	0.581040	4202.685059
5327.909879	0.090077	0.581040	4286.546875
5327.910800	0.090168	0.581040	4369.591797
5327.911689	0.090187	0.581040	4449.768066
5327.912645	0.090088	0.581040	4535.892090
5327.913550	0.090143	0.581040	4617.471191
5327.914478	0.090176	0.581040	4701.154297
5327.915367	0.090168	0.581040	4781.313965
5327.916313	0.090081	0.581040	4866.530273
5327.917237	0.090150	0.581040	4949.829102
5328.921549	1.073844	0.528692	474.639038
5328.922444	1.539419	0.528692	1852.418945
5328.923415	1.526473	0.528692	3334.624512
5328.924376	0.775137	0.528692	4079.530762
5328.925276	0.096412	0.528692	4166.301758
5328.926191	0.090190	0.528692	4248.826172
5328.927130	0.090238	0.528692	4333.559570
5328.928065	0.090201	0.528692	4417.897949
5328.928964	0.090220	0.528692	4499.005371
5328.929897	0.090139	0.528692	4583.104980
5328.930841	0.090190	0.528692	4668.244629
5328.931762	0.090154	0.528692	4751.276367
5328.932651	0.090198	0.528692	4831.462402
5328.933582	0.090143	0.528692	4915.385254
5329.938386	1.072379	0.588621	476.136322
5329.939282	1.539961	0.588621	1855.941284
5329.940217	1.527696	0.588621	3284.337402
5329.941169	0.834778	0.588621	4079.045898
5329.942090	0.097881	0.588621	4169.194336
5329.942977	0.090201	0.588621	4249.203125
5329.943913	0.090253	0.588621	4333.679687
5329.944854	0.090227	0.588621	4418.583496
5329.945757	0.090256	0.588621	4500.084961
5329.946684	0.090201	0.588621	4583.701660
5329.947617	0.090260	0.588621	4667.914062
5329.948535	0.090267	0.588621	4750.779297
5329.949428	0.090253	0.588621	4831.375000
5329.950371	0.090260	0.588621	4916.490234
5330.958826	1.110516	0.515793	517.500610
5330.959729	1.541818	0.515793	1909.761963
5330.960668	1.527140	0.515793	3343.746338
5330.961583	0.838352	0.515793	4110.838379
5330.962493	0.098613	0.515793	4200.576660
5330.963386	0.090253	0.515793	4281.172363
5330.964328	0.090260	0.515793	4366.197266
5330.965222	0.090187	0.515793	4446.824219
5330.966128	0.090300	0.515793	4528.636230
5330.967021	0.090183	0.515793	4609.169922
5330.967970	0.090249	0.515793	4694.816406
5330.968876	0.090271	0.515793	4776.602051
5330.969775	0.090201	0.515793	4857.693359
5330.970714	0.090227	0.515793	4942.416504
5331.971553	1.085955	0.580371	490.851440
5331.972457	1.540228	0.580371	1883.217773
5331.973355	1.528121	0.580371	3255.470703
5331.974292	0.887062	0.580371	4086.647461
5331.975225	0.098470	0.580371	4178.520508
5331.976127	0.090172	0.580371	4259.855957
5331.977016	0.090220	0.580371	4340.061523
5331.977951	0.090300	0.580371	4424.492187
5331.978858	0.090165	0.580371	4506.271484
5331.979755	0.090297	0.580371	4587.267578
5331.980640	0.090154	0.580371	4667.053711
5331.981586	0.090216	0.580371	4752.397949
5331.982484	0.090150	0.580371	4833.352539
5331.983379	0.090223	0.580371	4914.102539
5332.996061	1.084134	0.527367	490.028778
5332.996963	1.540594	0.527367	1879.645020
5332.997864	1.527715	0.527367	3256.116211
5332.998831	0.852495	0.527367	4080.479004
5332.999729	0.099529	0.527367	4169.855957
5333.000618	0.090161	0.527367	4250.009277
5333.001549	0.090238	0.527367	4334.020996
5333.002462	0.090165	0.527367	4416.341309
5333.003377	0.090121	0.527367	4498.801758
5333.004268	0.090278	0.527367	4579.239746
5333.005224	0.090289	0.527367	4665.556152
5333.006126	0.090220	0.527367	4746.934570
5333.007017	0.090275	0.527367	4827.369141
5333.007932	0.090231	0.527367	4909.930176
5334.005720	1.078484	0.575396	487.474701
5334.006661	1.542228	0.575396	1938.711182
5334.007558	1.526957	0.575396	3308.391602
5334.008524	0.818683	0.575396	4099.239258
5334.009449	0.096372	0.575396	4188.383301
5334.010370	0.090125	0.575396	4271.388184
5334.011259	0.090209	0.575396	4351.583984
5334.012210	0.090143	0.575396	4437.309570
5334.013132	0.090227	0.575396	4520.499023
5334.014045	0.090234	0.575396	4602.882812
5334.014943	0.090198	0.575396	4683.880371
5334.015898	0.090176	0.575396	4769.998047
5334.016815	0.090231	0.575396	4852.739746
5334.017709	0.090212	0.575396	4933.389648
5335.033830	1.097373	0.503491	502.596832
5335.034770	1.542426	0.503491	1952.476807
5335.035665	1.526495	0.503491	3318.690186
5335.036634	0.789042	0.503491	4083.271729
5335.037570	0.096006	0.503491	4173.133301
5335.038461	0.090190	0.503491	4253.493164
5335.039376	0.090161	0.503491	4335.990723
5335.040311	0.090165	0.503491	4420.294922
5335.041223	0.090176	0.503491	4502.535156
5335.042120	0.090165	0.503491	4583.413086
5335.043071	0.090220	0.503491	4669.211914
5335.044005	0.090209	0.503491	4753.466797
5335.044908	0.090209	0.503491	4834.925293
5335.045829	0.090198	0.503491	4917.997559
5336.041415	1.060598	0.576077	459.238983
5336.042358	1.539152	0.576077	1910.658936
5336.043312	1.525682	0.576077	3366.159912
5336.044246	0.783047	0.576077	4097.525391
5336.045144	0.096779	0.576077	4184.432617
5336.046091	0.090150	0.576077	4269.804687
5336.047026	0.090198	0.576077	4354.139648
5336.047953	0.090187	0.576077	4437.742676
5336.048845	0.090190	0.576077	4518.192383
5336.049771	0.090179	0.576077	4601.698730
5336.050701	0.090216	0.576077	4685.599609
5336.051614	0.090249	0.576077	4767.997070
5336.052512	0.090198	0.576077	4848.994629
5336.053465	0.090253	0.576077	4935.005371
5337.071068	1.071658	0.511173	476.887665
5337.071964	1.540430	0.511173	1857.112671
5337.072895	1.527883	0.511173	3279.572021
5337.073853	0.835994	0.511173	4080.453857
5337.074777	0.096830	0.511173	4169.924805
5337.075676	0.090198	0.511173	4251.012695
5337.076623	0.090150	0.511173	4336.384766
5337.077536	0.090267	0.511173	4418.798828
5337.078461	0.090183	0.511173	4502.218262
5337.079348	0.090249	0.511173	4582.269043
5337.080293	0.090187	0.511173	4667.495605
5337.081227	0.090205	0.511173	4751.747070
5337.082121	0.090234	0.511173	4832.416504
5337.083041	0.090179	0.511173	4915.381836
5338.077669	1.107371	0.562095	511.605225
5338.078573	1.540862	0.562095	1904.544189
5338.079468	1.527883	0.562095	3271.999756
5338.080430	0.847511	0.562095	4087.305420
5338.081323	0.099631	0.562095	4176.276367
5338.082223	0.090125	0.562095	4257.388672
5338.083116	0.090132	0.562095	4337.876465
5338.084072	0.090352	0.562095	4424.252441
5338.084981	0.090183	0.562095	4506.229004
5338.085879	0.090231	0.562095	4587.256348
5338.086804	0.090238	0.562095	4670.726562
5338.087708	0.090282	0.562095	4752.341309
5338.088607	0.090194	0.562095	4833.425781
5338.089495	0.090146	0.562095	4913.476074
5339.108309	1.084201	0.493082	485.721832
5339.109213	1.540488	0.493082	1878.323120
5339.110107	1.527664	0.493082	3244.054199
5339.111089	0.834606	0.493082	4063.636963
5339.111997	0.098533	0.493082	4153.104492
5339.112889	0.090216	0.493082	4233.577148
5339.113846	0.090227	0.493082	4319.924316
5339.114752	0.090190	0.493082	4401.636719
5339.115657	0.090194	0.493082	4483.262207
5339.116545	0.090194	0.493082	4563.354492
5339.117482	0.090319	0.493082	4647.982910
5339.118379	0.090088	0.493082	4728.791992
5339.119298	0.090194	0.493082	4811.680176
5339.120198	0.090300	0.493082	4892.950195
5340.113944	1.149441	0.566832	586.214844
5340.114852	1.542444	0.566832	1986.753784
5340.115750	1.525426	0.566832	3356.586426
5340.116652	0.841729	0.566832	4115.825684
5340.117589	0.097661	0.566832	4207.333984
5340.118498	0.090125	0.566832	4289.257324
5340.119420	0.090249	0.566832	4372.466797
5340.120305	0.090168	0.566832	4452.266113
5340.121253	0.090161	0.566832	4537.738770
5340.122150	0.090201	0.566832	4618.649414
5340.123039	0.090168	0.566832	4698.809082
5340.123972	0.090297	0.566832	4783.055664
5340.124891	0.090183	0.566832	4865.934082
5340.125786	0.090150	0.566832	4946.618652
5341.142988	1.065157	0.507910	465.473785
5341.143886	1.539119	0.507910	1847.602295
5341.144841	1.526503	0.507910	3305.412354
5341.145786	0.828596	0.507910	4088.435791
5341.146678	0.098342	0.507910	4176.157227
5341.147601	0.090227	0.507910	4259.437012
5341.148543	0.090256	0.507910	4344.458496
5341.149461	0.090242	0.507910	4427.300293
5341.150350	0.090194	0.507910	4507.482910
5341.151307	0.090190	0.507910	4593.794922
5341.152204	0.090216	0.507910	4674.718750
5341.153122	0.090220	0.507910	4757.540527
5341.154016	0.090242	0.507910	4838.216797
5341.154971	0.090220	0.507910	4924.376465
5342.150604	1.073939	0.572927	472.533264
5342.151582	1.542052	0.572927	1980.660156
5342.152516	1.524496	0.572927	3404.539307
5342.153416	0.793169	0.572927	4118.391113
5342.154354	0.097269	0.572927	4209.629883
5342.155278	0.090092	0.572927	4292.874512
5342.156199	0.090227	0.572927	4375.973633
5342.157089	0.090216	0.572927	4456.266113
5342.158039	0.090209	0.572927	4541.964355
5342.158959	0.090183	0.572927	4624.932617
5342.159883	0.090231	0.572927	4708.305664
5342.160772	0.090146	0.572927	4788.445801
5342.161708	0.090084	0.572927	4872.764648
5342.162629	0.090231	0.572927	4955.867187
5343.178228	1.093956	0.512172	524.005066
5343.179174	1.542814	0.512172	1983.506836
5343.180107	1.524349	0.512172	3405.724609
5343.181003	0.787456	0.512172	4111.285156
5343.181944	0.095735	0.512172	4201.371582
5343.182887	0.090161	0.512172	4286.393555
5343.183779	0.090198	0.512172	4366.850098
5343.184706	0.090238	0.512172	4450.500977
5343.185635	0.090114	0.512172	4534.216309
5343.186567	0.090223	0.512172	4618.304687
5343.187461	0.090205	0.512172	4698.948242
5343.188383	0.090198	0.512172	4782.110352
5343.189324	0.090172	0.512172	4866.962402
5343.190238	0.090187	0.512172	4949.393066
5344.188902	1.107400	0.573849	507.189178
5344.189844	1.542436	0.573849	1960.164429
5344.190779	1.525023	0.573849	3386.061035
5344.191702	0.789302	0.573849	4114.586426
5344.192641	0.095032	0.573849	4203.821289
5344.193579	0.090194	0.573849	4288.423340
5344.194478	0.090275	0.573849	4369.580078
5344.195407	0.090168	0.573849	4453.346680
5344.196349	0.090220	0.573849	4538.333496
5344.197275	0.090253	0.573849	4621.907715
5344.198164	0.090260	0.573849	4702.148926
5344.199099	0.090157	0.573849	4786.446289
5344.200035	0.090275	0.573849	4870.943359
5344.200951	0.090308	0.573849	4953.665039
5345.211864	1.078363	0.517050	475.558105
5345.212820	1.541188	0.517050	1948.933594
5345.213726	1.526602	0.517050	3332.034668
5345.214635	0.851631	0.517050	4106.166992
5345.215523	0.100232	0.517050	4195.172852
5345.216461	0.090286	0.517050	4279.860840
5345.217370	0.090256	0.517050	4361.903809
5345.218268	0.090256	0.517050	4442.954102
5345.219182	0.090322	0.517050	4525.508789
5345.220098	0.090363	0.517050	4608.280762
5345.221005	0.090132	0.517050	4690.030273
5345.221905	0.090220	0.517050	4771.228027
5345.222850	0.090223	0.517050	4856.489258
5345.223745	0.090260	0.517050	4937.271973
5346.226649	1.082369	0.571577	481.654419
5346.227565	1.540558	0.571577	1892.805420
5346.228472	1.527781	0.571577	3278.502441
5346.229428	0.841435	0.571577	4082.914795
5346.230328	0.098983	0.571577	4171.999512
5346.231229	0.090135	0.571577	4253.211426
5346.232117	0.090245	0.571577	4333.349121
5346.233058	0.090315	0.571577	4418.335449
5346.233964	0.090231	0.571577	4500.084473
5346.234856	0.090212	0.571577	4580.553711
5346.235743	0.090223	0.571577	4660.582031
5346.236686	0.090286	0.571577	4745.721191
5346.237592	0.090161	0.571577	4827.407227
5346.238494	0.090242	0.571577	4908.805176
5347.245513	1.069508	0.508401	470.583557
5347.246405	1.539163	0.508401	1843.516602
5347.247397	1.526070	0.508401	3357.378418
5347.248306	0.827054	0.508401	4109.170898
5347.249198	0.099001	0.508401	4197.479980
5347.250146	0.090282	0.508401	4283.067383
5347.251043	0.090176	0.508401	4363.955078
5347.251957	0.090220	0.508401	4446.416016
5347.252853	0.090223	0.508401	4527.256348
5347.253792	0.090183	0.508401	4611.938477
5347.254702	0.090249	0.508401	4694.064941
5347.255592	0.090176	0.508401	4774.321289
5347.256514	0.090187	0.508401	4857.473633
5347.257439	0.090132	0.508401	4940.845703
5348.265426	1.076389	0.563259	481.145905
5348.266322	1.539932	0.563259	1860.924683
5348.267257	1.527345	0.563259	3288.992187
5348.268182	0.857981	0.563259	4082.624512
5348.269113	0.098141	0.563259	4173.993652
5348.270015	0.090132	0.563259	4255.292480
5348.270977	0.090128	0.563259	4341.995605
5348.271903	0.090161	0.563259	4425.484863
5348.272799	0.090238	0.563259	4506.338379
5348.273739	0.090150	0.563259	4591.079590
5348.274656	0.090179	0.563259	4673.773926
5348.275577	0.090209	0.563259	4756.855957
5348.276467	0.090190	0.563259	4837.125488
5348.277420	0.090125	0.563259	4923.014160
5349.279690	1.066769	0.503386	466.177948
5349.280641	1.540957	0.503386	1931.628174
5349.281600	1.524690	0.503386	3393.805664
5349.282527	0.761539	0.503386	4099.752441
5349.283424	0.096222	0.503386	4186.063477
5349.284388	0.090135	0.503386	4272.954102
5349.285326	0.090286	0.503386	4357.642090
5349.286240	0.090249	0.503386	4440.129883
5349.287134	0.090139	0.503386	4520.714355
5349.288087	0.090227	0.503386	4606.700684
5349.289019	0.090146	0.503386	4690.717285
5349.289918	0.090209	0.503386	4771.814941
5349.290840	0.090161	0.503386	4854.943359
5349.291768	0.090176	0.503386	4938.626465
5350.303687	1.059950	0.538614	458.958344
5350.304624	1.540649	0.538614	1902.546875
5350.305583	1.525631	0.538614	3365.626953
5350.306513	0.789738	0.538614	4100.083008
5350.307401	0.097445	0.538614	4186.614258
5350.308348	0.090121	0.538614	4271.958496
5350.309287	0.090183	0.538614	4356.640625
5350.310183	0.090242	0.538614	4437.497070
5350.311111	0.090146	0.538614	4521.152832
5350.312045	0.090223	0.538614	4605.421387
5350.312957	0.090216	0.538614	4687.698242
5350.313857	0.090121	0.538614	4768.807129
5350.314783	0.090227	0.538614	4852.357422
5350.315714	0.090209	0.538614	4936.341797
5351.314426	1.088668	0.505690	526.915405
5351.315366	1.542865	0.505690	1977.208374
5351.316298	1.525045	0.505690	3398.550293
5351.317197	0.788979	0.505690	4107.842773
5351.318141	0.095680	0.505690	4198.164551
5351.319078	0.090256	0.505690	4282.734863
5351.319976	0.090242	0.505690	4363.771973
5351.320890	0.090238	0.505690	4446.249512
5351.321812	0.090220	0.505690	4529.432129
5351.322745	0.090231	0.505690	4613.617187
5351.323642	0.090260	0.505690	4694.580566
5351.324576	0.090194	0.505690	4778.821777
5351.325506	0.090223	0.505690	4862.729492
5351.326434	0.090205	0.505690	4946.439941
5352.341456	1.075836	0.526170	477.671265
5352.342415	1.542986	0.526170	1957.394775
5352.343334	1.526074	0.526170	3359.856934
5352.344240	0.829772	0.526170	4111.629883
5352.345171	0.098822	0.526170	4203.633301
5352.346091	0.090234	0.526170	4286.648926
5352.347000	0.090143	0.526170	4368.588867
5352.347890	0.090212	0.526170	4448.877930
5352.348827	0.090315	0.526170	4533.502930
5352.349735	0.090249	0.526170	4615.449219
5352.350633	0.090242	0.526170	4696.486328
5352.351525	0.090234	0.526170	4776.975586
5352.352454	0.090282	0.526170	4860.847656
5352.353360	0.090220	0.526170	4942.586914
5353.349131	1.132562	0.512514	568.546265
5353.350054	1.543180	0.512514	1992.901367
5353.350955	1.526019	0.512514	3367.844727
5353.351853	0.828604	0.512514	4111.930664
5353.352799	0.096255	0.512514	4202.987793
5353.353699	0.090231	0.512514	4284.195312
5353.354594	0.090234	0.512514	4364.955078
5353.355526	0.090238	0.512514	4449.057129
5353.356443	0.090352	0.512514	4531.909668
5353.357349	0.090267	0.512514	4613.691895
5353.358239	0.090183	0.512514	4693.955078
5353.359178	0.090293	0.512514	4778.740234
5353.360089	0.090249	0.512514	4860.957031
5353.360986	0.090253	0.512514	4941.913574
5354.378188	1.066172	0.525654	463.784760
5354.379126	1.539690	0.525654	1908.013916
5354.380064	1.526558	0.525654	3339.925049
5354.380973	0.841344	0.525654	4104.706543
5354.381865	0.099404	0.525654	4193.375000
5354.382804	0.090201	0.525654	4278.074219
5354.383726	0.090209	0.525654	4361.246582
5354.384646	0.090187	0.525654	4444.218262
5354.385533	0.090110	0.525654	4524.145508
5354.386479	0.090125	0.525654	4609.403320
5354.387373	0.090198	0.525654	4690.040039
5354.388258	0.090183	0.525654	4769.852051
5354.389185	0.090223	0.525654	4853.489258
5354.390106	0.090256	0.525654	4936.615234
5355.384276	1.083281	0.530138	484.226746
5355.385176	1.541235	0.530138	1871.338623
5355.386125	1.527762	0.530138	3321.185059
5355.387046	0.841648	0.530138	4096.342773
5355.387969	0.097760	0.530138	4186.575195
5355.388858	0.090157	0.530138	4266.725098
5355.389806	0.090267	0.530138	4352.298340
5355.390698	0.090172	0.530138	4432.731934
5355.391616	0.090264	0.530138	4515.593750
5355.392503	0.090205	0.530138	4595.605469
5355.393438	0.090223	0.530138	4679.964355
5355.394368	0.090205	0.530138	4763.854980
5355.395264	0.090275	0.530138	4844.741211
5355.396183	0.090099	0.530138	4927.541992
5356.412363	1.065308	0.524946	467.670044
5356.413338	1.544022	0.524946	1973.091675
5356.414278	1.525561	0.524946	3407.119385
5356.415182	0.783094	0.524946	4115.036621
5356.416104	0.097141	0.524946	4204.600586
5356.417023	0.090103	0.524946	4287.404785
5356.417941	0.090216	0.524946	4370.223145
5356.418829	0.090212	0.524946	4450.331543
5356.419775	0.090253	0.524946	4535.710449
5356.420683	0.090201	0.524946	4617.613281
5356.421613	0.090238	0.524946	4701.534668
5356.422505	0.090198	0.524946	4781.991211
5356.423452	0.090234	0.524946	4867.443359
5356.424379	0.090216	0.524946	4951.073730
5357.422549	1.093594	0.519068	491.023590
5357.423524	1.544044	0.519068	1996.466675
5357.424452	1.525763	0.519068	3412.374512
5357.425353	0.791400	0.519068	4125.425781
5357.426316	0.096215	0.519068	4218.080566
5357.427220	0.090099	0.519068	4299.529785
5357.428137	0.090260	0.519068	4382.298340
5357.429036	0.090209	0.519068	4463.395996
5357.429952	0.090161	0.519068	4545.983398
5357.430890	0.090264	0.519068	4630.650879
5357.431801	0.090231	0.519068	4712.851074
5357.432694	0.090187	0.519068	4793.387695
5357.433637	0.090267	0.519068	4878.509766
5357.434570	0.090157	0.519068	4962.626465
5358.445519	1.067801	0.533917	465.561432
5358.446423	1.540602	0.533917	1858.265503
5358.447380	1.527843	0.533917	3320.411133
5358.448318	0.824740	0.533917	4094.017334
5358.449215	0.098035	0.533917	4181.954590
5358.450135	0.090110	0.533917	4264.855469
5358.451059	0.090201	0.533917	4348.201660
5358.451985	0.090183	0.533917	4431.711426
5358.452881	0.090198	0.533917	4512.528809
5358.453805	0.090234	0.533917	4595.905273
5358.454740	0.090121	0.533917	4680.168457
5358.455664	0.090220	0.533917	4763.531250
5358.456553	0.090150	0.533917	4843.674805
5358.457479	0.090234	0.533917	4927.231934
5359.460340	1.099450	0.526674	529.934692
5359.461277	1.544235	0.526674	1976.882568
5359.462209	1.525869	0.526674	3398.992676
5359.463111	0.788646	0.526674	4110.351562
5359.464064	0.095771	0.526674	4201.621582
5359.464995	0.090135	0.526674	4285.537598
5359.465892	0.090304	0.526674	4366.540039
5359.466813	0.090253	0.526674	4449.662598
5359.467736	0.090172	0.526674	4532.891602
5359.468665	0.090212	0.526674	4616.698730
5359.469566	0.090187	0.526674	4697.957031
5359.470482	0.090278	0.526674	4780.651855
5359.471400	0.090179	0.526674	4863.436523
5359.472337	0.090249	0.526674	4948.000000
5360.478679	1.070079	0.534239	477.255371
5360.479580	1.541239	0.534239	1865.911743
5360.480514	1.528766	0.534239	3293.779053
5360.481470	0.822327	0.534239	4079.923340
5360.482391	0.097434	0.534239	4169.660156
5360.483281	0.090103	0.534239	4249.851562
5360.484224	0.090223	0.534239	4334.932129
5360.485149	0.090234	0.534239	4418.398926
5360.486050	0.090187	0.534239	4499.657227
5360.486976	0.090154	0.534239	4583.139648
5360.487915	0.090154	0.534239	4667.793945
5360.488841	0.090216	0.534239	4751.333984
5360.489742	0.090238	0.534239	4832.638672
5360.490660	0.090227	0.534239	4915.467285
5361.499093	1.079297	0.507886	482.445679
5361.499993	1.540898	0.507886	1869.254272
5361.500920	1.528572	0.507886	3286.240234
5361.501848	0.869868	0.507886	4093.478027
5361.502760	0.100111	0.507886	4184.779297
5361.503654	0.090183	0.507886	4265.402832
5361.504589	0.090326	0.507886	4349.857422
5361.505486	0.090278	0.507886	4430.836914
5361.506391	0.090278	0.507886	4512.538574
5361.507283	0.090201	0.507886	4592.998047
5361.508226	0.090253	0.507886	4678.106445
5361.509131	0.090231	0.507886	4759.765137
5361.510026	0.090242	0.507886	4840.531250
5361.510949	0.090238	0.507886	4923.820801
5362.512848	1.065776	0.532865	472.138916
5362.513741	1.539756	0.532865	1847.140869
5362.514691	1.527850	0.532865	3298.598633
5362.515624	0.851982	0.532865	4093.498291
5362.516519	0.099507	0.532865	4182.557129
5362.517429	0.090154	0.532865	4264.597168
5362.518366	0.090282	0.532865	4349.191406
5362.519278	0.090209	0.532865	4431.461914
5362.520177	0.090275	0.532865	4512.618652
5362.521114	0.090304	0.532865	4597.233398
5362.522011	0.090333	0.532865	4678.262207
5362.522912	0.090282	0.532865	4759.606445
5362.523794	0.090253	0.532865	4839.209473
5362.524728	0.090366	0.532865	4923.611328
5363.537364	1.068472	0.502024	472.264465
5363.538319	1.542682	0.502024	1945.525635
5363.539230	1.527078	0.502024	3336.693359
5363.540134	0.857567	0.502024	4111.934082
5363.541019	0.100452	0.502024	4200.833984
5363.541968	0.090135	0.502024	4286.372559
5363.542872	0.090194	0.502024	4367.908203
5363.543800	0.090183	0.502024	4451.598145
5363.544693	0.090114	0.502024	4532.069336
5363.545647	0.090187	0.502024	4618.107422
5363.546549	0.090201	0.502024	4699.469238
5363.547439	0.090183	0.502024	4779.732422
5363.548372	0.090234	0.502024	4863.920898
5363.549287	0.090198	0.502024	4946.451660
5364.548047	1.072489	0.521143	478.330109
5364.549005	1.542180	0.521143	1955.738647
5364.549919	1.525525	0.521143	3350.068359
5364.550863	0.783065	0.521143	4089.281982
5364.551754	0.096877	0.521143	4175.599609
5364.552716	0.089963	0.521143	4262.144531
5364.553636	0.090033	0.521143	4344.974609
5364.554533	0.090055	0.521143	4425.753906
5364.555479	0.090051	0.521143	4510.942383
5364.556389	0.090015	0.521143	4592.855469
5364.557300	0.090092	0.521143	4674.928711
5364.558200	0.090007	0.521143	4755.935547
5364.559150	0.089982	0.521143	4841.417969
5364.560060	0.089996	0.521143	4923.314453
5365.573624	1.124366	0.493573	536.322754
5365.574537	1.543561	0.493573	1945.593750
5365.575441	1.527667	0.493573	3326.604980
5365.576408	0.773917	0.493573	4074.982910
5365.577351	0.095109	0.493573	4164.670410
5365.578248	0.090176	0.493573	4245.558105
5365.579169	0.090198	0.493573	4328.630371
5365.580114	0.090176	0.493573	4413.846680
5365.581056	0.090187	0.493573	4498.802734
5365.581957	0.090187	0.493573	4580.061035
5365.582885	0.090168	0.493573	4663.737305
5365.583820	0.090216	0.493573	4748.089355
5365.584737	0.090286	0.493573	4830.881348
5365.585623	0.090198	0.493573	4910.796387
5366.582226	1.077623	0.517896	477.387085
5366.583195	1.543158	0.517896	1972.707153
5366.584162	1.524342	0.517896	3446.746094
5366.585102	0.702323	0.517896	4106.929687
5366.586004	0.094603	0.517896	4192.261719
5366.586948	0.090205	0.517896	4277.415527
5366.587879	0.090183	0.517896	4361.375977
5366.588775	0.090201	0.517896	4442.196289
5366.589697	0.090179	0.517896	4525.341797
5366.590629	0.090157	0.517896	4609.368652
5366.591542	0.090253	0.517896	4691.769531
5366.592432	0.090190	0.517896	4772.039062
5366.593385	0.090161	0.517896	4857.962402
5366.594319	0.090146	0.517896	4942.159180
5367.610375	1.129746	0.480989	554.705322
5367.611289	1.543499	0.480989	1965.463013
5367.612188	1.527686	0.480989	3338.852295
5367.613088	0.869264	0.480989	4121.189941
5367.614028	0.097826	0.480989	4213.146484
5367.614932	0.090209	0.480989	4294.695312
5367.615834	0.090172	0.480989	4376.030762
5367.616721	0.090201	0.480989	4456.039551
5367.617665	0.090242	0.480989	4541.227539
5367.618576	0.090161	0.480989	4623.364258
5367.619470	0.090198	0.480989	4704.000977
5367.620410	0.090201	0.480989	4788.790527
5367.621317	0.090256	0.480989	4870.652832
5367.622211	0.090161	0.480989	4951.256836
5368.617933	1.075909	0.519830	473.400177
5368.618841	1.540818	0.519830	1872.462769
5368.619738	1.530070	0.519830	3244.935059
5368.620709	0.851001	0.519830	4071.257080
5368.621612	0.099423	0.519830	4161.035645
5368.622510	0.090146	0.519830	4241.987305
5368.623399	0.090220	0.519830	4322.192871
5368.624350	0.090249	0.519830	4408.019531
5368.625258	0.090209	0.519830	4489.929199
5368.626152	0.090227	0.519830	4570.592285
5368.627090	0.090172	0.519830	4655.173828
5368.627993	0.090330	0.519830	4736.741211
5368.628896	0.090209	0.519830	4818.199707
5368.629785	0.090172	0.519830	4898.362793
5369.647046	1.075148	0.489782	467.689270
5369.648018	1.543308	0.489782	1967.784668
5369.648923	1.527436	0.489782	3350.114746
5369.649820	0.862767	0.489782	4124.017090
5369.650757	0.099822	0.489782	4217.550293
5369.651668	0.090143	0.489782	4299.670410
5369.652570	0.090278	0.489782	4381.101562
5369.653464	0.090201	0.489782	4461.741699
5369.654412	0.090275	0.489782	4547.322266
5369.655310	0.090201	0.489782	4628.323242
5369.656229	0.090212	0.489782	4711.228516
5369.657120	0.090179	0.489782	4791.578613
5369.658061	0.090150	0.489782	4876.409668
5369.658965	0.090176	0.489782	4957.928711
5370.654682	1.081516	0.520692	476.948608
5370.655594	1.541613	0.520692	1882.899292
5370.656525	1.528762	0.520692	3306.176758
5370.657428	0.866331	0.520692	4088.473145
5370.658387	0.097771	0.520692	4182.235352
5370.659285	0.090198	0.520692	4263.232910
5370.660173	0.090289	0.520692	4343.409668
5370.661117	0.090308	0.520692	4428.660156
5370.662016	0.090260	0.520692	4509.803711
5370.662931	0.090260	0.520692	4592.391602
5370.663825	0.090271	0.520692	4673.093750
5370.664770	0.090341	0.520692	4758.465820
5370.665678	0.090183	0.520692	4840.352051
5370.666569	0.090297	0.520692	4920.806152
5371.682255	1.066047	0.499608	466.928772
5371.683158	1.540851	0.499608	1858.317139
5371.684055	1.530165	0.499608	3230.875000
5371.685025	0.871351	0.499608	4076.085693
5371.685937	0.099672	0.499608	4166.986328
5371.686859	0.090117	0.499608	4250.074219
5371.687751	0.090267	0.499608	4330.592773
5371.688689	0.090187	0.499608	4415.187988
5371.689616	0.090172	0.499608	4498.777344
5371.690506	0.090176	0.499608	4579.033691
5371.691451	0.090275	0.499608	4664.343262
5371.692343	0.090216	0.499608	4744.815918
5371.693268	0.090315	0.499608	4828.357422
5371.694164	0.090216	0.499608	4909.190918
5372.690900	1.078597	0.517699	479.975861
5372.691830	1.540825	0.517699	1912.943237
5372.692782	1.527096	0.517699	3366.738525
5372.693726	0.769105	0.517699	4092.773926
5372.694643	0.095706	0.517699	4180.536133
5372.695553	0.090103	0.517699	4262.529297
5372.696482	0.090216	0.517699	4346.339844
5372.697419	0.090245	0.517699	4430.899902
5372.698321	0.090242	0.517699	4512.297852
5372.699247	0.090223	0.517699	4595.844727
5372.700185	0.090187	0.517699	4680.439941
5372.701107	0.090220	0.517699	4763.622559
5372.701993	0.090209	0.517699	4843.547363
5372.702940	0.090231	0.517699	4928.996094
5373.717972	1.078876	0.496135	482.257416
5373.718867	1.541096	0.496135	1861.538574
5373.719816	1.528737	0.496135	3312.309570
5373.720742	0.853927	0.496135	4103.045898
5373.721639	0.099829	0.496135	4192.592773
5373.722526	0.090172	0.496135	4272.575684
5373.723467	0.090289	0.496135	4357.538086
5373.724373	0.090260	0.496135	4439.313477
5373.725281	0.090179	0.496135	4521.196289
5373.726165	0.090238	0.496135	4600.966797
5373.727111	0.090341	0.496135	4686.429199
5373.728014	0.090278	0.496135	4767.950684
5373.728906	0.090249	0.496135	4848.452637
5373.729849	0.090271	0.496135	4933.578125
5374.728143	1.079960	0.521695	481.662048
5374.729042	1.540719	0.521695	1866.768311
5374.729961	1.529037	0.521695	3271.953125
5374.730917	0.847196	0.521695	4081.872559
5374.731819	0.099005	0.521695	4171.175293
5374.732710	0.090168	0.521695	4251.515625
5374.733644	0.090238	0.521695	4335.797852
5374.734553	0.090172	0.521695	4417.764160
5374.735453	0.090216	0.521695	4498.958496
5374.736340	0.090304	0.521695	4579.058105
5374.737282	0.090322	0.521695	4664.141602
5374.738175	0.090176	0.521695	4744.668457
5374.739066	0.090278	0.521695	4825.106445
5374.739981	0.090242	0.521695	4907.677734
5375.752679	1.094348	0.508365	503.400116
5375.753576	1.541569	0.508365	1886.187256
5375.754549	1.526942	0.508365	3371.901855
5375.755452	0.818386	0.508365	4110.904785
5375.756369	0.097335	0.508365	4200.161133
5375.757269	0.090179	0.508365	4281.322754
5375.758227	0.090245	0.508365	4367.777832
5375.759139	0.090267	0.508365	4450.101562
5375.760035	0.090260	0.508365	4530.974609
5375.760974	0.090198	0.508365	4615.670410
5375.761882	0.090330	0.508365	4697.689453
5375.762812	0.090194	0.508365	4781.569824
5375.763705	0.090293	0.508365	4862.201660
5375.764656	0.090201	0.508365	4947.983398
5376.766425	1.081626	0.513594	484.568420
5376.767329	1.540459	0.513594	1877.143311
5376.768262	1.527521	0.513594	3302.320312
5376.769213	0.820924	0.513594	4083.019043
5376.770130	0.097496	0.513594	4172.423340
5376.771020	0.090165	0.513594	4252.669922
5376.771961	0.090183	0.513594	4337.532227
5376.772897	0.090286	0.513594	4422.039551
5376.773791	0.090095	0.513594	4502.584473
5376.774711	0.090110	0.513594	4585.485352
5376.775644	0.090161	0.513594	4669.605469
5376.776557	0.090271	0.513594	4752.022949
5376.777455	0.090227	0.513594	4833.046875
5376.778399	0.090190	0.513594	4918.186523
5377.786369	1.124194	0.507322	545.234192
5377.787273	1.542041	0.507322	1939.239258
5377.788167	1.527198	0.507322	3304.554687
5377.789110	0.833763	0.507322	4090.793457
5377.790046	0.097145	0.507322	4181.721191
5377.790962	0.090253	0.507322	4264.392578
5377.791859	0.090227	0.507322	4345.326172
5377.792806	0.090238	0.507322	4430.781738
5377.793745	0.090223	0.507322	4515.501465
5377.794652	0.090209	0.507322	4597.320801
5377.795571	0.090264	0.507322	4680.272949
5377.796501	0.090242	0.507322	4764.197754
5377.797414	0.090330	0.507322	4846.668457
5377.798304	0.090168	0.507322	4926.918457
5378.804688	1.069695	0.513747	471.735443
5378.805584	1.539093	0.513747	1850.762817
5378.806539	1.525869	0.513747	3307.967773
5378.807466	0.852546	0.513747	4098.278320
5378.808354	0.099675	0.513747	4186.790039
5378.809293	0.090176	0.513747	4271.465332
5378.810202	0.090231	0.513747	4353.484863
5378.811103	0.090190	0.513747	4434.746582
5378.811992	0.090227	0.513747	4514.958496
5378.812968	0.090194	0.513747	4602.987793
5378.813863	0.090227	0.513747	4683.741211
5378.814764	0.090238	0.513747	4765.045898
5378.815651	0.090260	0.513747	4845.106445
5378.816582	0.090205	0.513747	4929.087402
5379.820494	1.075924	0.495100	473.406586
5379.821406	1.540448	0.495100	1878.295288
5379.822297	1.528462	0.495100	3240.154785
5379.823248	0.890376	0.495100	4086.902344
5379.824166	0.100704	0.495100	4179.349121
5379.825064	0.090125	0.495100	4260.280762
5379.825951	0.090234	0.495100	4340.318848
5379.826895	0.090220	0.495100	4425.486328
5379.827790	0.090201	0.495100	4506.216797
5379.828677	0.090128	0.495100	4586.160645
5379.829616	0.090209	0.495100	4670.866699
5379.830520	0.090264	0.495100	4752.464844
5379.831428	0.090157	0.495100	4834.327637
5379.832317	0.090245	0.495100	4914.555664
5380.842951	1.073156	0.504965	468.968964
5380.843907	1.542114	0.504965	1943.230225
5380.844819	1.526243	0.504965	3335.163574
5380.845721	0.863002	0.504965	4113.591309
5380.846649	0.100203	0.504965	4206.579590
5380.847562	0.090187	0.504965	4288.919922
5380.848480	0.090289	0.504965	4371.805664
5380.849373	0.090308	0.504965	4452.450195
5380.850320	0.090293	0.504965	4537.957520
5380.851220	0.090245	0.504965	4619.178223
5380.852143	0.090245	0.504965	4702.474609
5380.853029	0.090348	0.504965	4782.522949
5380.853962	0.090209	0.504965	4866.687500
5380.854866	0.090227	0.504965	4948.252930
5381.853182	1.093561	0.505775	536.938354
5381.854103	1.542806	0.505775	1957.863037
5381.855032	1.525162	0.505775	3374.738770
5381.855935	0.812150	0.505775	4108.109863
5381.856870	0.095900	0.505775	4197.775879
5381.857782	0.090198	0.505775	4280.036133
5381.858708	0.090231	0.505775	4363.589844
5381.859600	0.090201	0.505775	4444.049316
5381.860549	0.090146	0.505775	4529.598145
5381.861442	0.090242	0.505775	4610.184082
5381.862332	0.090176	0.505775	4690.440430
5381.863271	0.090198	0.505775	4775.136230
5381.864177	0.090227	0.505775	4856.881836
5381.865090	0.090216	0.505775	4939.249023
5382.880743	1.079205	0.508764	486.721588
5382.881646	1.540543	0.508764	1877.832031
5382.882540	1.528220	0.508764	3244.061035
5382.883489	0.882627	0.508764	4081.674072
5382.884404	0.099225	0.508764	4172.464844
5382.885317	0.090139	0.508764	4254.761719
5382.886209	0.090242	0.508764	4335.257324
5382.887139	0.090198	0.508764	4419.141113
5382.888048	0.090179	0.508764	4501.114258
5382.888966	0.090114	0.508764	4583.838379
5382.889854	0.090194	0.508764	4663.930664
5382.890795	0.090165	0.508764	4748.775879
5382.891716	0.090209	0.508764	4831.857910
5382.892605	0.090088	0.508764	4911.946289
5383.888348	1.082626	0.499668	488.264221
5383.889247	1.540518	0.499668	1873.189453
5383.890202	1.527125	0.499668	3331.594238
5383.891124	0.838975	0.499668	4105.128906
5383.892053	0.097654	0.499668	4195.849121
5383.892940	0.090128	0.499668	4275.792969
5383.893887	0.090212	0.499668	4361.224121
5383.894800	0.090157	0.499668	4443.538086
5383.895690	0.090264	0.499668	4523.872559
5383.896598	0.090176	0.499668	4605.751953
5383.897544	0.090201	0.499668	4691.082520
5383.898467	0.090220	0.499668	4774.355469
5383.899354	0.090227	0.499668	4854.386719
5383.900301	0.090245	0.499668	4939.849121
5384.918994	1.074283	0.506609	475.907593
5384.919896	1.540291	0.506609	1865.249756
5384.920820	1.527176	0.506609	3276.360840
5384.921786	0.825688	0.506609	4073.975830
5384.922709	0.097302	0.506609	4163.785645
5384.923599	0.090143	0.506609	4244.012695
5384.924546	0.090168	0.506609	4329.402344
5384.925487	0.090201	0.506609	4414.281738
5384.926403	0.090176	0.506609	4496.882812
5384.927293	0.090143	0.506609	4577.109863
5384.928229	0.090201	0.506609	4661.538574
5384.929168	0.090172	0.506609	4746.209961
5384.930070	0.090337	0.506609	4827.693848
5384.930990	0.090271	0.506609	4910.743164
5385.925623	1.111377	0.476779	523.458496
5385.926527	1.541942	0.476779	1917.374146
5385.927466	1.525584	0.476779	3349.896973
5385.928424	0.759650	0.476779	4077.641357
5385.929353	0.095299	0.476779	4166.174316
5385.930255	0.090212	0.476779	4247.545898
5385.931174	0.090231	0.476779	4330.467773
5385.932110	0.090198	0.476779	4414.893066
5385.933022	0.090165	0.476779	4497.123535
5385.933912	0.090234	0.476779	4577.432129
5385.934862	0.090154	0.476779	4663.078125
5385.935801	0.090117	0.476779	4747.698242
5385.936702	0.090183	0.476779	4828.953125
5385.937627	0.090157	0.476779	4912.348633
5386.954737	1.102511	0.508712	519.282715
5386.955653	1.542067	0.508712	1931.815796
5386.956588	1.525946	0.508712	3358.575195
5386.957485	0.827666	0.508712	4100.991699
5386.958444	0.096138	0.508712	4193.187988
5386.959381	0.090114	0.508712	4277.624512
5386.960276	0.090238	0.508712	4358.387695
5386.961208	0.090135	0.508712	4442.394043
5386.962148	0.090249	0.508712	4527.228027
5386.963064	0.090267	0.508712	4609.913086
5386.963949	0.090121	0.508712	4689.669922
5386.964890	0.090121	0.508712	4774.473633
5386.965825	0.090187	0.508712	4858.798340
5386.966727	0.090220	0.508712	4940.176758
5387.962825	1.067952	0.465089	468.830780
5387.963719	1.539913	0.465089	1845.513306
5387.964715	1.526917	0.465089	3366.322266
5387.965667	0.764960	0.465089	4094.563965
5387.966568	0.095720	0.465089	4180.808105
5387.967494	0.090081	0.465089	4264.222656
5387.968435	0.090355	0.465089	4349.247070
5387.969352	0.090231	0.465089	4431.988770
5387.970239	0.090216	0.465089	4512.010254
5387.971181	0.090223	0.465089	4597.000488
5387.972116	0.090139	0.465089	4681.280762
5387.973018	0.090231	0.465089	4762.668945
5387.973926	0.090198	0.465089	4844.568359
5387.974856	0.090121	0.465089	4928.380859
5388.988415	1.116486	0.505275	548.194458
5388.989338	1.543583	0.505275	1972.921387
5388.990248	1.526147	0.505275	3361.715576
5388.991147	0.829709	0.505275	4107.624512
5388.992115	0.095215	0.505275	4199.792480
5388.993027	0.090150	0.505275	4282.009277
5388.993930	0.090190	0.505275	4363.451172
5388.994852	0.090209	0.505275	4446.623535
5388.995755	0.090333	0.505275	4528.194336
5388.996667	0.090216	0.505275	4610.471191
5388.997555	0.090260	0.505275	4690.622070
5388.998490	0.090315	0.505275	4775.066406
5388.999395	0.090260	0.505275	4856.751953
5389.000294	0.090205	0.505275	4937.846191
5390.000087	1.077550	0.462627	478.432220
5390.000982	1.540155	0.462627	1856.870972
5390.001946	1.527330	0.462627	3329.217285
5390.002874	0.837111	0.462627	4106.055664
5390.003761	0.098987	0.462627	4193.856934
5390.004673	0.090084	0.462627	4276.013672
5390.005608	0.090190	0.462627	4360.341797
5390.006517	0.090231	0.462627	4442.361328
5390.007413	0.090220	0.462627	4523.198242
5390.008340	0.090216	0.462627	4606.828613
5390.009245	0.090231	0.462627	4688.487305
5390.010150	0.090264	0.462627	4770.175781
5390.011042	0.090161	0.462627	4850.599609
5390.011984	0.090271	0.462627	4935.634766
5391.022093	1.136550	0.503301	577.367554
5391.023020	1.543759	0.503301	2008.431641
5391.023922	1.525968	0.503301	3384.854736
5391.024825	0.802518	0.503301	4109.528809
5391.025778	0.095284	0.503301	4200.334961
5391.026680	0.090165	0.503301	4281.663574
5391.027604	0.090260	0.503301	4365.063965
5391.028493	0.090245	0.503301	4445.291992
5391.029432	0.090377	0.503301	4530.156250
5391.030329	0.090238	0.503301	4611.099609
5391.031218	0.090267	0.503301	4691.347168
5391.032126	0.090289	0.503301	4773.330078
5391.033045	0.090220	0.503301	4856.242187
5391.033943	0.090161	0.503301	4937.207031
5392.036821	1.078718	0.457516	480.029633
5392.037717	1.540642	0.457516	1860.445068
5392.038616	1.529301	0.457516	3235.286133
5392.039581	0.867905	0.457516	4072.814697
5392.040475	0.100756	0.457516	4162.890137
5392.041405	0.090187	0.457516	4246.763672
5392.042296	0.090260	0.457516	4327.185547
5392.043240	0.090278	0.457516	4412.408203
5392.044164	0.090088	0.457516	4495.649414
5392.045061	0.090187	0.457516	4576.546875
5392.045993	0.090190	0.457516	4660.604492
5392.046910	0.090242	0.457516	4743.355957
5392.047829	0.090201	0.457516	4826.250977
5392.048718	0.090198	0.457516	4906.437012
5393.055714	1.082695	0.505481	498.039825
5393.056660	1.542861	0.505481	1957.586670
5393.057586	1.526345	0.505481	3370.982422
5393.058485	0.824121	0.505481	4111.867187
5393.059426	0.097471	0.505481	4203.586914
5393.060347	0.090231	0.505481	4286.689453
5393.061263	0.090256	0.505481	4369.364258
5393.062154	0.090176	0.505481	4449.710937
5393.063107	0.090154	0.505481	4535.627441
5393.064038	0.090319	0.505481	4619.713867
5393.064928	0.090275	0.505481	4700.058105
5393.065850	0.090220	0.505481	4783.240723
5393.066773	0.090271	0.505481	4866.561035
5393.067683	0.090249	0.505481	4948.687500
5394.074576	1.071127	0.440419	471.295746
5394.075470	1.540221	0.440419	1848.253296
5394.076461	1.526525	0.440419	3361.039062
5394.077395	0.784680	0.440419	4093.930420
5394.078283	0.097299	0.440419	4180.331543
5394.079223	0.090260	0.440419	4265.175781
5394.080140	0.090267	0.440419	4347.950684
5394.081056	0.090150	0.440419	4430.528320
5394.081945	0.090176	0.440419	4510.694824
5394.082873	0.090190	0.440419	4594.391602
5394.083793	0.090278	0.440419	4677.447754
5394.084711	0.090278	0.440419	4760.323242
5394.085602	0.090216	0.440419	4840.705566
5394.086544	0.090190	0.440419	4925.665039
5395.089355	1.078510	0.513952	473.465698
5395.090347	1.543249	0.513952	2004.369141
5395.091265	1.525631	0.513952	3404.898437
5395.092162	0.800002	0.513952	4122.500488
5395.093089	0.096621	0.513952	4212.068359
5395.094027	0.090103	0.513952	4296.584473
5395.094943	0.090198	0.513952	4379.205566
5395.095842	0.090198	0.513952	4460.293457
5395.096796	0.090231	0.513952	4546.373535
5395.097735	0.090260	0.513952	4631.127930
5395.098635	0.090238	0.513952	4712.342285
5395.099554	0.090201	0.513952	4795.237305
5395.100489	0.090223	0.513952	4879.596191
5395.101414	0.090150	0.513952	4962.984863
5396.111831	1.077133	0.446591	476.092590
5396.112727	1.540855	0.446591	1856.698242
5396.113704	1.527286	0.446591	3348.856934
5396.114639	0.808649	0.446591	4104.943359
5396.115531	0.097701	0.446591	4192.093262
5396.116451	0.090095	0.446591	4274.980957
5396.117391	0.090201	0.446591	4359.770508
5396.118316	0.090220	0.446591	4443.223633
5396.119213	0.090253	0.446591	4524.180176
5396.120152	0.090168	0.446591	4608.848145
5396.121084	0.090157	0.446591	4692.875000
5396.121991	0.090212	0.446591	4774.697754
5396.122880	0.090154	0.446591	4854.844727
5396.123828	0.090194	0.446591	4940.348633
5397.124563	1.093121	0.510045	489.718323
5397.125504	1.543074	0.510045	1941.750732
5397.126398	1.527455	0.510045	3307.295410
5397.127368	0.786229	0.510045	4069.937744
5397.128321	0.095288	0.510045	4160.747070
5397.129226	0.090220	0.510045	4242.395996
5397.130145	0.090220	0.510045	4325.308105
5397.131090	0.090201	0.510045	4410.548340
5397.132011	0.090242	0.510045	4493.661133
5397.132899	0.090293	0.510045	4573.841309
5397.133851	0.090271	0.510045	4659.779297
5397.134784	0.090234	0.510045	4743.967773
5397.135684	0.090264	0.510045	4825.205078
5397.136598	0.090209	0.510045	4907.655762
5398.149071	1.071768	0.449660	469.434204
5398.149968	1.540492	0.449660	1851.255493
5398.150950	1.526704	0.449660	3350.479004
5398.151888	0.794945	0.449660	4096.137695
5398.152778	0.097485	0.449660	4182.899902
5398.153689	0.090048	0.449660	4264.933105
5398.154626	0.090227	0.449660	4349.476074
5398.155540	0.090194	0.449660	4431.913574
5398.156428	0.090212	0.449660	4512.021973
5398.157373	0.090190	0.449660	4597.251953
5398.158322	0.090168	0.449660	4682.821777
5398.159216	0.090286	0.449660	4763.537109
5398.160138	0.090238	0.449660	4846.736816
5398.161074	0.090234	0.449660	4931.196289
5399.160267	1.077462	0.505283	475.160767
5399.161225	1.543491	0.505283	1953.825439
5399.162149	1.526616	0.505283	3364.418945
5399.163057	0.823359	0.505283	4112.029297
5399.163988	0.098276	0.505283	4203.524414
5399.164899	0.090319	0.505283	4285.804687
5399.165800	0.090267	0.505283	4367.135742
5399.166688	0.090289	0.505283	4447.312500
5399.167637	0.090256	0.505283	4532.965820
5399.168548	0.090227	0.505283	4615.162598
5399.169446	0.090286	0.505283	4696.239258
5399.170332	0.090275	0.505283	4776.222656
5399.171284	0.090267	0.505283	4862.157227
5399.172196	0.090194	0.505283	4944.414062
5400.185812	1.074159	0.440190	481.223206
5400.186702	1.540551	0.440190	1852.313232
5400.187660	1.527660	0.440190	3315.811523
5400.188593	0.835488	0.440190	4095.322021
5400.189498	0.098218	0.440190	4184.208984
5400.190428	0.090216	0.440190	4268.109863
5400.191342	0.090253	0.440190	4350.600586
5400.192249	0.090212	0.440190	4432.423340
5400.193149	0.090341	0.440190	4513.729980
5400.194094	0.090344	0.440190	4599.105469
5400.194995	0.090304	0.440190	4680.469238
5400.195900	0.090289	0.440190	4762.181152
5400.196787	0.090293	0.440190	4842.270996
5400.197718	0.090308	0.440190	4926.347168
5401.195977	1.064264	0.520108	461.890564
5401.196920	1.540323	0.520108	1914.415527
5401.197850	1.527235	0.520108	3334.744141
5401.198775	0.834251	0.520108	4106.425781
5401.199671	0.098804	0.520108	4194.954102
5401.200606	0.090157	0.520108	4279.251465
5401.201510	0.090242	0.520108	4360.830078
5401.202414	0.090227	0.520108	4442.395508
5401.203306	0.090245	0.520108	4522.894531
5401.204254	0.090326	0.520108	4608.523437
5401.205162	0.090315	0.520108	4690.529297
5401.206052	0.090308	0.520108	4770.903320
5401.206945	0.090311	0.520108	4851.551270
5401.207880	0.090319	0.520108	4935.999023
5402.221059	1.136539	0.443364	556.904297
5402.221988	1.544114	0.443364	1991.385986
5402.222895	1.526807	0.443364	3376.199707
5402.223796	0.809905	0.443364	4105.923828
5402.224754	0.095614	0.443364	4197.521973
5402.225653	0.090143	0.443364	4278.560547
5402.226543	0.090311	0.443364	4358.937500
5402.227485	0.090286	0.443364	4443.986816
5402.228387	0.090256	0.443364	4525.397949
5402.229288	0.090157	0.443364	4606.629883
5402.230180	0.090187	0.443364	4687.076660
5402.231115	0.090286	0.443364	4771.493652
5402.232032	0.090242	0.443364	4854.245117
5402.232938	0.090278	0.443364	4936.037109
5403.233226	1.062008	0.515197	460.911469
5403.234171	1.541382	0.515197	1917.517334
5403.235094	1.527788	0.515197	3327.665527
5403.236006	0.857128	0.515197	4109.366211
5403.236891	0.100726	0.515197	4198.508789
5403.237841	0.090242	0.515197	4284.238281
5403.238740	0.090220	0.515197	4365.345703
5403.239626	0.090304	0.515197	4445.354980
5403.240556	0.090231	0.515197	4529.269531
5403.241477	0.090253	0.515197	4612.392090
5403.242380	0.090201	0.515197	4693.843750
5403.243303	0.090128	0.515197	4777.032227
5403.244197	0.090300	0.515197	4857.760742
5403.245143	0.090253	0.515197	4943.139648
5404.255698	1.066058	0.452355	472.263824
5404.256595	1.542030	0.452355	1855.464722
5404.257539	1.530337	0.452355	3300.102539
5404.258474	0.858073	0.452355	4102.400391
5404.259386	0.098789	0.452355	4192.496094
5404.260275	0.090194	0.452355	4272.678711
5404.261210	0.090216	0.452355	4357.030762
5404.262112	0.090190	0.452355	4438.382324
5404.263040	0.090227	0.452355	4522.112793
5404.263925	0.090168	0.452355	4601.912109
5404.264872	0.090216	0.452355	4687.346680
5404.265779	0.090165	0.452355	4769.125977
5404.266670	0.090227	0.452355	4849.518066
5404.267601	0.090278	0.452355	4933.567383
5405.271047	1.142783	0.496457	572.534363
5405.271963	1.543997	0.496457	1986.835205
5405.272886	1.526276	0.496457	3395.587646
5405.273792	0.797666	0.496457	4118.272949
5405.274751	0.094907	0.496457	4209.289062
5405.275655	0.090187	0.496457	4290.817871
5405.276547	0.090249	0.496457	4371.319824
5405.277483	0.090245	0.496457	4455.789551
5405.278394	0.090220	0.496457	4537.979492
5405.279302	0.090264	0.496457	4619.938965
5405.280193	0.090311	0.496457	4700.406250
5405.281098	0.090227	0.496457	4782.061523
5405.282045	0.090256	0.496457	4867.534180
5405.282959	0.090234	0.496457	4950.008301
5406.290378	1.076027	0.449620	472.375671
5406.291338	1.543436	0.449620	1954.074463
5406.292248	1.527466	0.449620	3344.068359
5406.293149	0.859969	0.449620	4118.900879
5406.294090	0.100195	0.449620	4213.184570
5406.294992	0.090179	0.449620	4294.526367
5406.295914	0.090308	0.449620	4377.790039
5406.296800	0.090095	0.449620	4457.614258
5406.297756	0.090234	0.449620	4543.878418
5406.298670	0.090227	0.449620	4626.345703
5406.299584	0.090187	0.449620	4708.776367
5406.300476	0.090245	0.449620	4789.275391
5406.301417	0.090190	0.449620	4874.144531
5406.302328	0.090205	0.449620	4956.321289
5407.308245	1.078876	0.502415	479.020782
5407.309152	1.541199	0.502415	1876.887939
5407.310050	1.529714	0.502415	3250.571289
5407.310991	0.899022	0.502415	4096.551270
5407.311923	0.100199	0.502415	4189.936523
5407.312839	0.090099	0.502415	4272.467285
5407.313727	0.090260	0.502415	4352.618164
5407.314671	0.090198	0.502415	4437.764648
5407.315578	0.090176	0.502415	4519.554199
5407.316489	0.090187	0.502415	4601.714355
5407.317384	0.090216	0.502415	4682.457520
5407.318335	0.090220	0.502415	4768.256348
5407.319266	0.090201	0.502415	4852.233887
5407.320186	0.090260	0.502415	4935.272949
