time (s)	coil I (A)	last det (V)	int current (uC)
7948.335560	1.065157	0.314546	466.538940
7948.336457	1.539415	0.314546	1847.394409
7948.337435	1.526748	0.314546	3340.553955
7948.338340	1.487036	0.314546	4686.321777
7948.339237	0.968639	0.314546	5555.190918
7948.340163	0.108999	0.314546	5656.124023
7948.341084	0.089996	0.314546	5739.010742
7948.342012	0.090073	0.314546	5822.598633
7948.342907	0.090132	0.314546	5903.266602
7948.343837	0.090150	0.314546	5987.106445
7948.344749	0.090135	0.314546	6069.310059
7948.345666	0.090110	0.314546	6151.940918
7948.346557	0.090216	0.314546	6232.323242
7948.347505	0.090176	0.314546	6317.810059
7948.348428	0.090117	0.314546	6400.988281
7949.345257	1.095396	0.262940	507.168152
7949.346167	1.541759	0.262940	1910.168945
7949.347062	1.527832	0.262940	3277.578613
7949.348029	1.486121	0.262940	4714.657227
7949.348982	0.873270	0.262940	5546.883789
7949.349873	0.102187	0.262940	5637.932617
7949.350797	0.090033	0.262940	5721.123047
7949.351741	0.090077	0.262940	5806.155762
7949.352659	0.090154	0.262940	5888.916992
7949.353553	0.090128	0.262940	5969.491699
7949.354488	0.090092	0.262940	6053.727539
7949.355431	0.090110	0.262940	6138.701172
7949.356358	0.090179	0.262940	6222.297363
7949.357255	0.090154	0.262940	6303.165527
7949.358204	0.090157	0.262940	6388.725098
7950.386639	1.072822	0.264897	472.041779
7950.387547	1.540360	0.264897	1870.688721
7950.388441	1.528850	0.264897	3237.480713
7950.389398	1.488234	0.264897	4661.720215
7950.390322	0.961428	0.264897	5550.080078
7950.391217	0.108560	0.264897	5647.240723
7950.392160	0.090132	0.264897	5732.234863
7950.393064	0.090201	0.264897	5813.776855
7950.393964	0.090143	0.264897	5894.905273
7950.394851	0.090154	0.264897	5974.871582
7950.395780	0.090121	0.264897	6058.593750
7950.396691	0.090150	0.264897	6140.720703
7950.397595	0.090121	0.264897	6222.189941
7950.398486	0.090114	0.264897	6302.480957
7950.399437	0.090319	0.264897	6388.374023
7951.379423	1.088496	0.305237	487.646240
7951.380348	1.540902	0.305237	1912.980713
7951.381244	1.528110	0.305237	3282.167480
7951.382189	1.487465	0.305237	4687.821289
7951.383114	0.937925	0.305237	5555.401855
7951.384014	0.106058	0.305237	5650.854492
7951.384909	0.090106	0.305237	5731.499512
7951.385865	0.090245	0.305237	5817.773926
7951.386763	0.090154	0.305237	5898.731934
7951.387662	0.090121	0.305237	5979.750488
7951.388584	0.090220	0.305237	6062.933105
7951.389490	0.090286	0.305237	6144.731934
7951.390400	0.090194	0.305237	6226.808594
7951.391289	0.090179	0.305237	6306.978027
7951.392222	0.090176	0.305237	6391.111816
7952.398794	1.064169	0.292524	469.298401
7952.399750	1.542140	0.292524	1943.584229
7952.400654	1.526715	0.292524	3323.734863
7952.401574	1.486831	0.292524	4691.619629
7952.402487	0.926528	0.292524	5537.540039
7952.403443	0.100873	0.292524	5633.974609
7952.404347	0.090114	0.292524	5715.437012
7952.405237	0.090114	0.292524	5795.638184
7952.406170	0.090271	0.292524	5879.860840
7952.407088	0.090081	0.292524	5962.554687
7952.408004	0.090099	0.292524	6045.085449
7952.408897	0.090165	0.292524	6125.602539
7952.409838	0.090253	0.292524	6210.530273
7952.410741	0.090201	0.292524	6291.981934
7952.411652	0.090157	0.292524	6374.115234
7953.436106	1.070771	0.296580	470.068665
7953.437045	1.540173	0.296580	1916.291504
7953.438001	1.525499	0.296580	3374.668945
7953.438931	1.484952	0.296580	4755.674805
7953.439837	0.888442	0.296580	5560.603516
7953.440797	0.099254	0.296580	5655.887695
7953.441743	0.090081	0.296580	5741.104004
7953.442642	0.090117	0.296580	5822.119141
7953.443557	0.090084	0.296580	5904.546387
7953.444492	0.090114	0.296580	5988.802734
7953.445419	0.090125	0.296580	6072.348145
7953.446317	0.090117	0.296580	6153.273437
7953.447238	0.090106	0.296580	6236.261230
7953.448176	0.090128	0.296580	6320.801270
7953.449089	0.090084	0.296580	6403.048340
7954.431493	1.099113	0.275161	535.267822
7954.432421	1.542938	0.275161	1967.114502
7954.433316	1.526766	0.275161	3333.570312
7954.434240	1.486560	0.275161	4707.151855
7954.435193	0.867209	0.275161	5533.602539
7954.436119	0.099265	0.275161	5625.521973
7954.437015	0.090157	0.275161	5706.303223
7954.437972	0.090114	0.275161	5792.541992
7954.438905	0.090198	0.275161	5876.696289
7954.439803	0.090179	0.275161	5957.677246
7954.440723	0.090139	0.275161	6040.605469
7954.441664	0.090135	0.275161	6125.422852
7954.442583	0.090132	0.275161	6208.253906
7954.443473	0.090190	0.275161	6288.523437
7954.444409	0.090179	0.275161	6372.931641
7955.467719	1.064242	0.284028	465.073700
7955.468678	1.542715	0.284028	1944.537231
7955.469595	1.526565	0.284028	3344.397461
7955.470503	1.487073	0.284028	4694.659180
7955.471439	0.918036	0.284028	5553.940430
7955.472368	0.101184	0.284028	5647.940430
7955.473275	0.090037	0.284028	5729.603516
7955.474169	0.090128	0.284028	5810.178223
7955.475113	0.090201	0.284028	5895.328125
7955.476011	0.090201	0.284028	5976.329102
7955.476909	0.090187	0.284028	6057.316895
7955.477802	0.090209	0.284028	6137.873535
7955.478732	0.090128	0.284028	6221.692871
7955.479641	0.090106	0.284028	6303.599609
7955.480543	0.090165	0.284028	6384.928223
7956.472789	1.084812	0.320629	481.656555
7956.473722	1.541503	0.320629	1919.878662
7956.474658	1.526400	0.320629	3348.589355
7956.475570	1.486480	0.320629	4704.258789
7956.476524	0.880217	0.320629	5543.985840
7956.477417	0.102415	0.320629	5635.441895
7956.478305	0.090066	0.320629	5715.420410
7956.479248	0.090216	0.320629	5800.494141
7956.480145	0.090103	0.320629	5881.315918
7956.481063	0.090154	0.320629	5964.077148
7956.481960	0.090161	0.320629	6044.951660
7956.482897	0.090172	0.320629	6129.442871
7956.483798	0.090117	0.320629	6210.638672
7956.484690	0.090176	0.320629	6291.075684
7956.485613	0.090267	0.320629	6374.392578
7957.489639	1.092645	0.282195	498.246246
7957.490541	1.540525	0.282195	1887.799683
7957.491460	1.527327	0.282195	3291.413086
7957.492370	1.487648	0.282195	4645.172852
7957.493327	0.925316	0.282195	5530.700195
7957.494254	0.102627	0.282195	5625.835449
7957.495148	0.090110	0.282195	5706.393555
7957.496079	0.090205	0.282195	5790.374512
7957.497000	0.090103	0.282195	5873.358887
7957.497926	0.090077	0.282195	5956.770020
7957.498812	0.090048	0.282195	6036.552246
7957.499750	0.090165	0.282195	6121.126953
7957.500667	0.090088	0.282195	6203.737305
7957.501590	0.090179	0.282195	6286.973145
7957.502477	0.090092	0.282195	6366.884277
7958.524391	1.084314	0.291843	492.278564
7958.525296	1.540682	0.291843	1886.596069
7958.526192	1.528451	0.291843	3256.087891
7958.527152	1.487366	0.291843	4683.958984
7958.528102	0.905559	0.291843	5544.240234
7958.528999	0.102653	0.291843	5636.319824
7958.529912	0.090059	0.291843	5718.543457
7958.530842	0.090092	0.291843	5802.328613
7958.531778	0.090223	0.291843	5886.777832
7958.532674	0.090154	0.291843	5967.555664
7958.533596	0.090092	0.291843	6050.620117
7958.534532	0.090110	0.291843	6134.962891
7958.535447	0.090172	0.291843	6217.470215
7958.536334	0.090062	0.291843	6297.355469
7958.537283	0.090062	0.291843	6382.824707
7959.521753	1.082637	0.270380	485.021240
7959.522651	1.540155	0.270380	1868.080322
7959.523593	1.527092	0.270380	3306.601074
7959.524533	1.486436	0.270380	4703.850586
7959.525464	0.925137	0.270380	5565.152832
7959.526354	0.105762	0.270380	5659.280762
7959.527278	0.090022	0.270380	5742.460937
7959.528218	0.090135	0.270380	5827.188477
7959.529143	0.090117	0.270380	5910.546875
7959.530041	0.090062	0.270380	5991.422852
7959.530989	0.090103	0.270380	6076.839844
7959.531926	0.090048	0.270380	6161.214355
7959.532821	0.090161	0.270380	6241.908691
7959.533739	0.090088	0.270380	6324.609375
7959.534670	0.090084	0.270380	6408.478027
7960.559061	1.086394	0.292258	483.445374
7960.559967	1.540613	0.292258	1879.240479
7960.560864	1.527847	0.292258	3249.718750
7960.561818	1.487589	0.292258	4668.878906
7960.562740	0.962545	0.292258	5556.345703
7960.563627	0.108995	0.292258	5653.024414
7960.564569	0.090135	0.292258	5737.932129
7960.565476	0.090125	0.292258	5819.675293
7960.566377	0.090194	0.292258	5900.939941
7960.567272	0.090084	0.292258	5981.565430
7960.568234	0.090234	0.292258	6068.371094
7960.569135	0.090172	0.292258	6149.616211
7960.570028	0.090154	0.292258	6230.123535
7960.570940	0.090238	0.292258	6312.420410
7960.571857	0.090260	0.292258	6395.188965
7961.558482	1.081450	0.313801	481.245361
7961.559396	1.540305	0.313801	1889.084229
7961.560298	1.528180	0.313801	3267.502441
7961.561251	1.487285	0.313801	4684.885254
7961.562170	0.949135	0.313801	5557.139648
7961.563068	0.107626	0.313801	5653.787598
7961.563953	0.090165	0.313801	5733.583496
7961.564888	0.090245	0.313801	5817.962891
7961.565797	0.090139	0.313801	5899.899414
7961.566697	0.090165	0.313801	5981.047852
7961.567587	0.090165	0.313801	6061.294434
7961.568542	0.090231	0.313801	6147.464844
7961.569443	0.090070	0.313801	6228.617676
7961.570366	0.090106	0.313801	6311.785645
7961.571275	0.090117	0.313801	6393.702148
7962.588687	1.134104	0.309181	574.990723
7962.589596	1.541935	0.309181	1976.609375
7962.590528	1.524364	0.309181	3397.316650
7962.591420	1.484634	0.309181	4721.609863
7962.592388	0.837576	0.309181	5532.383301
7962.593295	0.099137	0.309181	5622.300293
7962.594187	0.090110	0.309181	5702.678223
7962.595123	0.090201	0.309181	5787.106934
7962.596028	0.090168	0.309181	5868.709473
7962.596945	0.090179	0.309181	5951.403809
7962.597840	0.090150	0.309181	6032.088379
7962.598788	0.090154	0.309181	6117.554199
7962.599693	0.090125	0.309181	6199.116699
7962.600609	0.090194	0.309181	6281.734375
7962.601498	0.090121	0.309181	6361.851562
7963.601867	1.078480	0.312992	473.452820
7963.602830	1.541257	0.312992	1957.683594
7963.603756	1.525294	0.312992	3370.105957
7963.604647	1.485985	0.312992	4694.118652
7963.605609	0.880294	0.312992	5540.961426
7963.606520	0.100822	0.312992	5632.810059
7963.607435	0.090081	0.312992	5715.233887
7963.608333	0.090179	0.312992	5796.214844
7963.609277	0.090135	0.312992	5881.302734
7963.610206	0.090179	0.312992	5965.079590
7963.611097	0.090146	0.312992	6045.399902
7963.612004	0.090143	0.312992	6127.159668
7963.612923	0.090103	0.312992	6209.963867
7963.613848	0.090168	0.312992	6293.369629
7963.614738	0.090165	0.312992	6373.616211
7964.625352	1.075225	0.281824	472.023560
7964.626330	1.541484	0.281824	1979.595215
7964.627258	1.524708	0.281824	3394.524414
7964.628153	1.484993	0.281824	4723.592773
7964.629096	0.867023	0.281824	5541.195312
7964.630036	0.099159	0.281824	5634.404785
7964.630968	0.090026	0.281824	5718.308594
7964.631863	0.090212	0.281824	5799.048828
7964.632780	0.090161	0.281824	5881.726562
7964.633723	0.090143	0.281824	5966.731445
7964.634643	0.090264	0.281824	6049.773926
7964.635536	0.090157	0.281824	6130.284668
7964.636483	0.090205	0.281824	6215.708984
7964.637423	0.090165	0.281824	6300.463867
7964.638322	0.090242	0.281824	6381.591309
7965.642739	1.092682	0.295053	524.487305
7965.643682	1.541620	0.295053	1978.234863
7965.644611	1.524437	0.295053	3394.437012
7965.645506	1.484703	0.295053	4723.246582
7965.646464	0.848994	0.295053	5536.583008
7965.647399	0.098383	0.295053	5628.570801
7965.648301	0.090103	0.295053	5709.843262
7965.649218	0.090176	0.295053	5792.534668
7965.650151	0.090128	0.295053	5876.624023
7965.651074	0.090066	0.295053	5959.754883
7965.652001	0.090220	0.295053	6043.388672
7965.652900	0.090168	0.295053	6124.450195
7965.653841	0.090088	0.295053	6209.222656
7965.654780	0.090183	0.295053	6293.904785
7965.655671	0.090172	0.295053	6374.248047
7966.661111	1.117650	0.277333	532.001465
7966.662025	1.541719	0.277333	1941.132446
7966.662928	1.526045	0.277333	3319.150879
7966.663873	1.484586	0.277333	4722.084961
7966.664825	0.864653	0.277333	5545.234863
7966.665721	0.101001	0.277333	5635.731934
7966.666642	0.090092	0.277333	5718.706055
7966.667583	0.090146	0.277333	5803.533691
7966.668499	0.090114	0.277333	5886.077637
7966.669390	0.090073	0.277333	5966.333008
7966.670338	0.090125	0.277333	6051.770996
7966.671276	0.090135	0.277333	6136.317871
7966.672189	0.090157	0.277333	6218.631836
7966.673077	0.090223	0.277333	6298.750000
7966.674021	0.090183	0.277333	6383.882812
7967.678437	1.092426	0.295887	503.608185
7967.679337	1.540126	0.295887	1889.721313
7967.680263	1.526649	0.295887	3303.398437
7967.681187	1.486033	0.295887	4676.492676
7967.682115	0.939855	0.295887	5548.677734
7967.683008	0.106608	0.295887	5643.878418
7967.683947	0.090132	0.295887	5728.512207
7967.684855	0.090165	0.295887	5810.381836
7967.685765	0.090146	0.295887	5892.415039
7967.686656	0.090165	0.295887	5972.751953
7967.687608	0.090256	0.295887	6058.675781
7967.688513	0.090238	0.295887	6140.341309
7967.689406	0.090146	0.295887	6220.842285
7967.690336	0.090190	0.295887	6304.719238
7967.691244	0.090286	0.295887	6386.698730
7968.697345	1.094216	0.278972	535.071777
7968.698260	1.542074	0.278972	1946.069458
7968.699175	1.525078	0.278972	3341.516113
7968.700071	1.486080	0.278972	4673.043945
7968.701031	0.886498	0.278972	5524.082031
7968.701935	0.102477	0.278972	5616.721191
7968.702830	0.090161	0.278972	5697.415527
7968.703719	0.090238	0.278972	5777.637207
7968.704652	0.090245	0.278972	5861.835937
7968.705556	0.090095	0.278972	5943.282227
7968.706447	0.090238	0.278972	6023.684082
7968.707373	0.090205	0.278972	6107.213867
7968.708291	0.090223	0.278972	6190.039062
7968.709196	0.090103	0.278972	6271.582031
7968.710086	0.090154	0.278972	6351.818848
7969.711573	1.076631	0.296197	481.254028
7969.712475	1.537800	0.296197	1868.349854
7969.713375	1.526484	0.296197	3242.185791
7969.714312	1.486637	0.296197	4635.164551
7969.715243	0.970254	0.296197	5538.470703
7969.716138	0.109578	0.296197	5636.542480
7969.717024	0.090216	0.296197	5716.474121
7969.717955	0.090227	0.296197	5800.475586
7969.718860	0.090187	0.296197	5882.094727
7969.719782	0.090231	0.296197	5965.287598
7969.720673	0.090234	0.296197	6045.686523
7969.721635	0.090168	0.296197	6132.428711
7969.722540	0.090176	0.296197	6214.037598
7969.723433	0.090220	0.296197	6294.604004
7969.724360	0.090267	0.296197	6378.281738
7970.738142	1.079202	0.264055	480.244751
7970.739052	1.538254	0.264055	1880.056274
7970.739950	1.526060	0.264055	3250.457764
7970.740888	1.486066	0.264055	4644.387695
7970.741813	0.968057	0.264055	5539.839844
7970.742714	0.108951	0.264055	5638.004883
7970.743604	0.090088	0.264055	5718.183105
7970.744546	0.090168	0.264055	5803.121582
7970.745438	0.090139	0.264055	5883.525879
7970.746352	0.090135	0.264055	5965.909668
7970.747248	0.090216	0.264055	6046.743164
7970.748180	0.090106	0.264055	6130.722168
7970.749096	0.090106	0.264055	6213.259277
7970.750017	0.090146	0.264055	6296.284180
7970.750908	0.090231	0.264055	6376.679687
7971.746282	1.110579	0.287154	519.750732
7971.747195	1.539690	0.287154	1925.487549
7971.748102	1.524587	0.287154	3308.288330
7971.749053	1.482946	0.287154	4718.569336
7971.750009	0.858003	0.287154	5538.820312
7971.750902	0.101140	0.287154	5629.138672
7971.751829	0.090110	0.287154	5712.670410
7971.752772	0.090183	0.287154	5797.712891
7971.753682	0.090209	0.287154	5879.802734
7971.754579	0.090150	0.287154	5960.667480
7971.755525	0.090209	0.287154	6046.004883
7971.756463	0.090231	0.287154	6130.641113
7971.757360	0.090212	0.287154	6211.561523
7971.758279	0.090157	0.287154	6294.416016
7971.759214	0.090179	0.287154	6378.733887
7972.782589	1.125813	0.253896	548.270935
7972.783526	1.541451	0.253896	1992.610840
7972.784456	1.524305	0.253896	3410.214844
7972.785348	1.484571	0.253896	4734.452637
7972.786311	0.834957	0.253896	5538.516602
7972.787245	0.097727	0.253896	5629.793457
7972.788160	0.090095	0.253896	5712.230469
7972.789059	0.090150	0.253896	5793.275391
7972.790000	0.090168	0.253896	5878.124023
7972.790942	0.090095	0.253896	5962.993652
7972.791847	0.090209	0.253896	6044.632324
7972.792781	0.090238	0.253896	6128.914551
7972.793684	0.090212	0.253896	6210.376465
7972.794585	0.090183	0.253896	6291.631348
7972.795478	0.090201	0.253896	6372.181152
7973.783522	1.084171	0.264285	486.792816
7973.784429	1.538716	0.264285	1882.408081
7973.785342	1.525587	0.264285	3275.269043
7973.786254	1.485802	0.264285	4630.320312
7973.787206	0.945238	0.264285	5530.187012
7973.788114	0.105886	0.264285	5626.331543
7973.789015	0.090081	0.264285	5707.494141
7973.789941	0.090275	0.264285	5791.088379
7973.790848	0.090278	0.264285	5872.970703
7973.791750	0.090245	0.264285	5954.372070
7973.792640	0.090172	0.264285	6034.625488
7973.793592	0.090216	0.264285	6120.511230
7973.794485	0.090216	0.264285	6201.074219
7973.795388	0.090216	0.264285	6282.539551
7973.796314	0.090135	0.264285	6366.004883
7974.820857	1.135573	0.272837	548.481567
7974.821770	1.540400	0.272837	1954.867065
7974.822701	1.523331	0.272837	3373.088379
7974.823597	1.483521	0.272837	4702.322754
7974.824568	0.860702	0.272837	5538.064453
7974.825468	0.100327	0.272837	5628.358887
7974.826358	0.090114	0.272837	5708.560059
7974.827292	0.090183	0.272837	5792.791016
7974.828205	0.090143	0.272837	5875.091309
7974.829125	0.090132	0.272837	5958.012695
7974.830013	0.090132	0.272837	6038.049805
7974.830950	0.090117	0.272837	6122.489746
7974.831853	0.090157	0.272837	6203.901855
7974.832780	0.090194	0.272837	6287.511719
7974.833674	0.090183	0.272837	6368.135254
7975.823304	1.066692	0.255233	467.211029
7975.824289	1.540481	0.255233	1984.584839
7975.825188	1.523445	0.255233	3354.161621
7975.826116	1.482751	0.255233	4730.155273
7975.827030	0.899187	0.255233	5552.012207
7975.827969	0.099404	0.255233	5645.353027
7975.828887	0.090015	0.255233	5727.986328
7975.829806	0.090092	0.255233	5810.780273
7975.830695	0.090157	0.255233	5890.930176
7975.831653	0.090161	0.255233	5977.304687
7975.832569	0.090099	0.255233	6059.835449
7975.833460	0.090157	0.255233	6140.165527
7975.834409	0.090143	0.255233	6225.710937
7975.835306	0.090081	0.255233	6306.513184
7975.836229	0.090176	0.255233	6389.745605
7976.846301	1.096355	0.290683	503.226929
7976.847203	1.539294	0.290683	1891.670410
7976.848140	1.524617	0.290683	3320.236328
7976.849084	1.483407	0.290683	4720.572266
7976.850021	0.883502	0.290683	5548.414062
7976.850912	0.102865	0.290683	5640.066895
7976.851860	0.090099	0.290683	5725.480469
7976.852794	0.090253	0.290683	5809.776367
7976.853692	0.090209	0.290683	5890.783691
7976.854613	0.090176	0.290683	5973.835449
7976.855552	0.090070	0.290683	6058.410645
7976.856484	0.090154	0.290683	6142.434082
7976.857384	0.090220	0.290683	6223.631836
7976.858308	0.090088	0.290683	6306.873047
7976.859244	0.090081	0.290683	6391.188477
7977.868277	1.103390	0.264301	532.937317
7977.869232	1.541429	0.264301	2005.002441
7977.870161	1.524181	0.264301	3420.966309
7977.871055	1.484663	0.264301	4748.254883
7977.872010	0.829973	0.264301	5540.879395
7977.872946	0.097870	0.264301	5632.485352
7977.873865	0.090110	0.264301	5715.296387
7977.874758	0.090212	0.264301	5795.855957
7977.875703	0.090205	0.264301	5881.099609
7977.876644	0.090161	0.264301	5965.941406
7977.877544	0.090150	0.264301	6047.076660
7977.878450	0.090106	0.264301	6128.712891
7977.879380	0.090121	0.264301	6212.525391
7977.880315	0.090172	0.264301	6296.836426
7977.881208	0.090201	0.264301	6377.386230
7978.873809	1.061774	0.298316	462.933319
7978.874704	1.537357	0.298316	1838.867920
7978.875685	1.524932	0.298316	3334.825928
7978.876624	1.483890	0.298316	4728.199219
7978.877532	0.909858	0.298316	5554.350586
7978.878442	0.104432	0.298316	5649.384277
7978.879370	0.090051	0.298316	5732.951660
7978.880306	0.090212	0.298316	5817.390625
7978.881207	0.090201	0.298316	5898.662109
7978.882127	0.090048	0.298316	5981.505859
7978.883070	0.090125	0.298316	6066.493164
7978.883989	0.090220	0.298316	6149.405273
7978.884881	0.090132	0.298316	6229.802734
7978.885825	0.090209	0.298316	6314.959961
7978.886753	0.090194	0.298316	6398.660156
7979.914698	1.071211	0.264358	469.190369
7979.915594	1.537844	0.264358	1847.098877
7979.916564	1.525034	0.264358	3326.382080
7979.917485	1.484700	0.264358	4693.790527
7979.918392	0.943542	0.264358	5549.583496
7979.919331	0.105099	0.264358	5648.271484
7979.920231	0.090106	0.264358	5729.367187
7979.921130	0.090128	0.264358	5810.392578
7979.922019	0.090212	0.264358	5890.591309
7979.922968	0.090165	0.264358	5976.157715
7979.923863	0.090187	0.264358	6056.875000
7979.924765	0.090125	0.264358	6138.167480
7979.925655	0.090154	0.264358	6218.404297
7979.926590	0.090212	0.264358	6302.752930
7979.927509	0.090092	0.264358	6385.546875
7980.911063	1.072540	0.264321	482.643127
7980.911955	1.539708	0.264321	1856.062988
7980.912913	1.527426	0.264321	3319.336670
7980.913831	1.487325	0.264321	4684.701172
7980.914745	0.949197	0.264321	5552.267090
7980.915636	0.107937	0.264321	5648.438965
7980.916603	0.090190	0.264321	5735.653320
7980.917502	0.090146	0.264321	5816.694824
7980.918428	0.090231	0.264321	5900.248535
7980.919315	0.090227	0.264321	5980.279785
7980.920261	0.090187	0.264321	6065.596680
7980.921160	0.090198	0.264321	6146.684570
7980.922047	0.090150	0.264321	6226.647949
7980.922976	0.090205	0.264321	6310.448242
7980.923891	0.090125	0.264321	6392.912109
7981.942738	1.065527	0.277506	464.569916
7981.943706	1.538778	0.277506	1954.107056
7981.944616	1.524760	0.277506	3341.638184
7981.945542	1.484377	0.277506	4716.171875
7981.946442	0.930557	0.277506	5553.672852
7981.947389	0.100635	0.277506	5648.974121
7981.948311	0.090022	0.277506	5731.974609
7981.949201	0.090135	0.277506	5812.195312
7981.950116	0.090070	0.277506	5894.608887
7981.951048	0.090004	0.277506	5978.492187
7981.951972	0.090154	0.277506	6061.794434
7981.952862	0.090157	0.277506	6142.034668
7981.953813	0.090081	0.277506	6227.701172
7981.954724	0.090073	0.277506	6309.757812
7981.955650	0.090132	0.277506	6393.219727
7982.961134	1.080839	0.268390	501.509155
7982.962052	1.539774	0.268390	1915.021851
7982.962951	1.525950	0.268390	3286.850586
7982.963895	1.486036	0.268390	4689.668945
7982.964839	0.896060	0.268390	5535.549316
7982.965755	0.100917	0.268390	5627.989258
7982.966653	0.090048	0.268390	5708.852051
7982.967589	0.090092	0.268390	5793.177734
7982.968520	0.090143	0.268390	5877.100586
7982.969450	0.090029	0.268390	5960.827637
7982.970347	0.090146	0.268390	6041.688965
7982.971289	0.090088	0.268390	6126.551758
7982.972222	0.090114	0.268390	6210.627441
7982.973143	0.090110	0.268390	6293.618652
7982.974031	0.090146	0.268390	6373.668945
7983.964652	1.092184	0.290876	510.049835
7983.965569	1.540558	0.290876	1922.741333
7983.966466	1.526038	0.290876	3291.597168
7983.967405	1.485209	0.290876	4686.208008
7983.968351	0.892123	0.290876	5530.156250
7983.969274	0.101525	0.290876	5623.863281
7983.970162	0.090157	0.290876	5703.923340
7983.971101	0.090183	0.290876	5788.605469
7983.972038	0.090051	0.290876	5872.983398
7983.972962	0.090187	0.290876	5956.315918
7983.973858	0.090179	0.290876	6037.116699
7983.974803	0.090099	0.290876	6122.260254
7983.975741	0.090157	0.290876	6206.828125
7983.976644	0.090198	0.290876	6288.276855
7983.977561	0.090234	0.290876	6371.021973
7985.001979	1.093733	0.290880	519.523071
7985.002914	1.541331	0.290880	1960.667114
7985.003811	1.524866	0.290880	3328.471680
7985.004748	1.484612	0.290880	4719.552734
7985.005707	0.851741	0.290880	5536.372070
7985.006613	0.099214	0.290880	5626.259766
7985.007513	0.090106	0.290880	5707.355469
7985.008444	0.090275	0.290880	5791.401367
7985.009380	0.090198	0.290880	5875.826660
7985.010282	0.090179	0.290880	5957.168457
7985.011201	0.090150	0.290880	6040.016602
7985.012127	0.090150	0.290880	6123.495605
7985.013051	0.090176	0.290880	6206.817871
7985.013938	0.090253	0.290880	6286.872070
7985.014867	0.090110	0.290880	6370.583984
7985.998322	1.087438	0.259866	511.095734
7985.999248	1.541060	0.259866	1938.116943
7986.000182	1.524207	0.259866	3361.725830
7986.001080	1.484648	0.259866	4694.940430
7986.002050	0.855469	0.259866	5524.745117
7986.002953	0.100452	0.259866	5615.453125
7986.003851	0.090015	0.259866	5696.286133
7986.004743	0.090143	0.259866	5776.693359
7986.005678	0.090245	0.259866	5861.072754
7986.006581	0.090139	0.259866	5942.468262
7986.007483	0.090183	0.259866	6023.813477
7986.008401	0.090179	0.259866	6106.598145
7986.009317	0.090168	0.259866	6189.192383
7986.010224	0.090128	0.259866	6270.938477
7986.011113	0.090216	0.259866	6351.140625
7987.031495	1.061400	0.273252	460.647675
7987.032455	1.539734	0.273252	1938.792236
7987.033385	1.524833	0.273252	3356.886719
7987.034280	1.485183	0.273252	4686.125488
7987.035187	0.941440	0.273252	5540.011719
7987.036129	0.102510	0.273252	5636.575684
7987.037031	0.090143	0.273252	5717.884277
7987.037920	0.090081	0.273252	5797.965820
7987.038852	0.090205	0.273252	5882.037109
7987.039756	0.090187	0.273252	5963.565918
7987.040658	0.090176	0.273252	6044.904297
7987.041545	0.090150	0.273252	6124.867676
7987.042494	0.090187	0.273252	6210.455078
7987.043403	0.090183	0.273252	6292.431641
7987.044299	0.090165	0.273252	6373.219238
7988.052977	1.119855	0.250971	528.571472
7988.053882	1.540397	0.250971	1922.630615
7988.054822	1.525034	0.250971	3356.162598
7988.055743	1.484447	0.250971	4723.338379
7988.056692	0.874731	0.250971	5553.458496
7988.057584	0.101532	0.250971	5644.024902
7988.058473	0.090135	0.250971	5724.155273
7988.059408	0.090190	0.250971	5808.483398
7988.060316	0.090135	0.250971	5890.326660
7988.061232	0.090165	0.250971	5972.917480
7988.062120	0.090179	0.250971	6052.997070
7988.063079	0.090128	0.250971	6139.430176
7988.063978	0.090110	0.250971	6220.438965
7988.064866	0.090168	0.250971	6300.508789
7988.065797	0.090154	0.250971	6384.441895
7989.054426	1.075027	0.281494	482.687073
7989.055324	1.538873	0.281494	1864.595215
7989.056270	1.526946	0.281494	3309.085937
7989.057182	1.488021	0.281494	4666.161133
7989.058109	0.953005	0.281494	5549.597168
7989.058998	0.108215	0.281494	5645.800781
7989.059952	0.090073	0.281494	5731.730469
7989.060857	0.090121	0.281494	5813.290039
7989.061775	0.090128	0.281494	5896.027832
7989.062662	0.090165	0.281494	5976.003906
7989.063605	0.090062	0.281494	6060.932617
7989.064529	0.090157	0.281494	6144.238281
7989.065416	0.090183	0.281494	6224.230469
7989.066361	0.090172	0.281494	6309.443359
7989.067278	0.090176	0.281494	6392.134766
7990.091230	1.082318	0.287150	485.960876
7990.092137	1.541386	0.287150	1883.997559
7990.093031	1.529103	0.287150	3251.015625
7990.093969	1.488292	0.287150	4647.033691
7990.094912	0.938774	0.287150	5532.297852
7990.095832	0.104784	0.287150	5628.699219
7990.096720	0.090095	0.287150	5708.703613
7990.097663	0.090161	0.287150	5793.725586
7990.098602	0.090088	0.287150	5878.318359
7990.099520	0.090201	0.287150	5961.123047
7990.100409	0.090125	0.287150	6041.243652
7990.101347	0.090172	0.287150	6125.825195
7990.102286	0.090135	0.287150	6210.462402
7990.103189	0.090161	0.287150	6291.877930
7990.104113	0.090099	0.287150	6375.129395
7991.087053	1.076781	0.269949	473.783661
7991.088033	1.541261	0.269949	1984.219604
7991.088962	1.523511	0.269949	3399.561035
7991.089858	1.484344	0.269949	4729.533691
7991.090795	0.876035	0.269949	5550.378418
7991.091744	0.099441	0.269949	5644.748047
7991.092659	0.090114	0.269949	5727.202148
7991.093561	0.090125	0.269949	5808.494629
7991.094492	0.090143	0.269949	5892.417480
7991.095396	0.090286	0.269949	5974.035645
7991.096310	0.090135	0.269949	6056.419434
7991.097204	0.090157	0.269949	6137.020020
7991.098139	0.090157	0.269949	6221.317383
7991.099037	0.090172	0.269949	6302.291992
7991.099930	0.090048	0.269949	6382.704590
7992.123848	1.067955	0.258118	466.696442
7992.124740	1.538159	0.258118	1838.734497
7992.125714	1.525540	0.258118	3324.610107
7992.126622	1.485729	0.258118	4673.651855
7992.127525	0.970327	0.258118	5549.857422
7992.128465	0.108805	0.258118	5652.134277
7992.129373	0.090103	0.258118	5733.947266
7992.130272	0.090150	0.258118	5814.992187
7992.131160	0.090157	0.258118	5895.052246
7992.132087	0.090205	0.258118	5978.672363
7992.133002	0.090205	0.258118	6061.209961
7992.133905	0.090227	0.258118	6142.685059
7992.134796	0.090187	0.258118	6223.041504
7992.135743	0.090132	0.258118	6308.396484
7992.136647	0.090209	0.258118	6389.945312
7993.138120	1.063678	0.241581	464.827240
7993.139078	1.542832	0.241581	1942.860352
7993.139996	1.526462	0.241581	3344.152832
7993.140930	1.486296	0.241581	4732.353516
7993.141834	0.898125	0.241581	5544.258301
7993.142792	0.100100	0.241581	5640.154297
7993.143688	0.090157	0.241581	5720.935547
7993.144580	0.090150	0.241581	5801.349609
7993.145505	0.090304	0.241581	5884.880859
7993.146409	0.090176	0.241581	5966.399902
7993.147328	0.090267	0.241581	6049.355469
7993.148226	0.090212	0.241581	6130.366211
7993.149163	0.090275	0.241581	6214.953613
7993.150068	0.090238	0.241581	6296.619141
7993.150959	0.090198	0.241581	6376.985352
7994.151883	1.070200	0.259375	468.747681
7994.152851	1.541188	0.259375	1960.617432
7994.153755	1.525433	0.259375	3339.609375
7994.154649	1.486187	0.259375	4668.260254
7994.155575	0.938727	0.259375	5537.521484
7994.156510	0.102920	0.259375	5633.751465
7994.157434	0.090084	0.259375	5716.989258
7994.158322	0.090099	0.259375	5796.997070
7994.159263	0.090084	0.259375	5881.766113
7994.160183	0.090132	0.259375	5964.687500
7994.161105	0.090165	0.259375	6047.819336
7994.161997	0.090095	0.259375	6128.184082
7994.162953	0.090081	0.259375	6214.301270
7994.163874	0.090139	0.259375	6297.319336
7994.164763	0.090194	0.259375	6377.501953
7995.181528	1.073035	0.270509	472.135254
7995.182425	1.538591	0.270509	1852.251587
7995.183399	1.526927	0.270509	3339.479004
7995.184331	1.486560	0.270509	4724.953125
7995.185230	0.930000	0.270509	5561.022949
7995.186155	0.105571	0.270509	5658.676270
7995.187077	0.090070	0.270509	5741.720215
7995.188014	0.090165	0.270509	5826.204590
7995.188927	0.090179	0.270509	5908.538574
7995.189819	0.090103	0.270509	5988.910156
7995.190761	0.090132	0.270509	6073.814453
7995.191688	0.090110	0.270509	6157.346191
7995.192587	0.090209	0.270509	6238.443848
7995.193507	0.090179	0.270509	6321.409180
7995.194443	0.090135	0.270509	6405.775879
7996.180973	1.108795	0.271097	515.589722
7996.181904	1.542975	0.271097	1952.099243
7996.182798	1.527711	0.271097	3317.873047
7996.183736	1.486937	0.271097	4712.620117
7996.184684	0.877061	0.271097	5544.073730
7996.185606	0.100642	0.271097	5636.865723
7996.186495	0.090161	0.271097	5717.019043
7996.187429	0.090165	0.271097	5801.232910
7996.188368	0.090121	0.271097	5885.856445
7996.189270	0.090216	0.271097	5967.231445
7996.190186	0.090179	0.271097	6049.835937
7996.191127	0.090238	0.271097	6134.750000
7996.192057	0.090150	0.271097	6218.589844
7996.192956	0.090216	0.271097	6299.693848
7996.193894	0.090297	0.271097	6384.392090
7997.218266	1.081677	0.281430	479.183014
7997.219198	1.540276	0.281430	1914.720093
7997.220103	1.526587	0.281430	3296.281250
7997.221018	1.486930	0.281430	4656.822266
7997.221951	0.953917	0.281430	5546.827148
7997.222844	0.107644	0.281430	5642.953125
7997.223734	0.090073	0.281430	5723.118164
7997.224682	0.090157	0.281430	5808.587402
7997.225598	0.090143	0.281430	5891.158203
7997.226504	0.090146	0.281430	5972.831055
7997.227393	0.090220	0.281430	6053.036621
7997.228340	0.090271	0.281430	6138.523437
7997.229242	0.090150	0.281430	6219.838867
7997.230129	0.090205	0.281430	6299.850586
7997.231034	0.090128	0.281430	6381.416504
7998.215637	1.083212	0.265091	486.362030
7998.216537	1.539481	0.265091	1871.895264
7998.217432	1.527938	0.265091	3239.399902
7998.218385	1.487175	0.265091	4656.677734
7998.219321	0.947567	0.265091	5543.600586
7998.220245	0.105172	0.265091	5640.779785
7998.221132	0.090132	0.265091	5720.726562
7998.222089	0.090150	0.265091	5807.000488
7998.222991	0.090176	0.265091	5888.338867
7998.223908	0.090179	0.265091	5971.033203
7998.224805	0.090168	0.265091	6051.914062
7998.225751	0.090179	0.265091	6137.223633
7998.226662	0.090205	0.265091	6219.400391
7998.227557	0.090179	0.265091	6300.110840
7998.228463	0.090187	0.265091	6381.819824
7999.255504	1.076305	0.264676	476.803070
7999.256472	1.541019	0.264676	1968.509644
7999.257414	1.525177	0.264676	3405.226562
7999.258335	1.485128	0.264676	4773.029297
7999.259240	0.875541	0.264676	5565.393555
7999.260192	0.098928	0.264676	5659.573242
7999.261134	0.090084	0.264676	5744.432617
7999.262028	0.090212	0.264676	5825.082520
7999.262933	0.090070	0.264676	5906.595703
7999.263865	0.090055	0.264676	5990.526855
7999.264799	0.090117	0.264676	6074.696289
7999.265689	0.090073	0.264676	6154.861328
7999.266612	0.090092	0.264676	6238.015625
7999.267552	0.090110	0.264676	6322.718750
7999.268469	0.090059	0.264676	6405.302246
8000.257010	1.079854	0.247261	516.169983
8000.257938	1.541378	0.247261	1946.568848
8000.258858	1.524855	0.247261	3349.435059
8000.259752	1.485330	0.247261	4677.319336
8000.260707	0.891460	0.247261	5528.663574
8000.261614	0.101854	0.247261	5621.045410
8000.262519	0.090117	0.247261	5702.601562
8000.263408	0.090231	0.247261	5782.816895
8000.264361	0.090271	0.247261	5868.845215
8000.265267	0.090187	0.247261	5950.554199
8000.266164	0.090216	0.247261	6031.478027
8000.267099	0.090216	0.247261	6115.830078
8000.268000	0.090271	0.247261	6197.164062
8000.268888	0.090150	0.247261	6277.217285
8000.269781	0.090209	0.247261	6357.773926
8001.290754	1.094619	0.258855	538.552612
8001.291678	1.542048	0.258855	1963.405273
8001.292599	1.523928	0.258855	3366.943115
8001.293502	1.484539	0.258855	4707.481445
8001.294477	0.834932	0.258855	5521.540039
8001.295388	0.098994	0.258855	5611.723633
8001.296280	0.090088	0.258855	5692.082031
8001.297170	0.090117	0.258855	5772.286133
8001.298103	0.090059	0.258855	5856.311035
8001.299013	0.090099	0.258855	5938.300781
8001.299940	0.090157	0.258855	6021.876953
8001.300828	0.090059	0.258855	6101.849121
8001.301786	0.090070	0.258855	6188.135742
8001.302685	0.090143	0.258855	6269.174316
8001.303578	0.090092	0.258855	6349.625977
8002.300871	1.064355	0.225416	461.930298
8002.301846	1.541265	0.225416	1964.663330
8002.302750	1.525144	0.225416	3343.393555
8002.303676	1.485256	0.225416	4718.741211
8002.304577	0.921943	0.225416	5549.412109
8002.305516	0.101711	0.225416	5644.918945
8002.306439	0.090099	0.225416	5728.080078
8002.307338	0.090125	0.225416	5809.102051
8002.308275	0.090033	0.225416	5893.462891
8002.309190	0.090037	0.225416	5975.846191
8002.310112	0.090055	0.225416	6058.876953
8002.311004	0.090099	0.225416	6139.245117
8002.311952	0.090066	0.225416	6224.627441
8002.312876	0.090176	0.225416	6307.949707
8002.313797	0.090172	0.225416	6390.998047
8003.325953	1.101215	0.262351	538.493896
8003.326885	1.542261	0.262351	1975.880981
8003.327814	1.523558	0.262351	3391.266602
8003.328721	1.483781	0.262351	4737.055664
8003.329668	0.841553	0.262351	5534.005859
8003.330604	0.098108	0.262351	5625.834961
8003.331504	0.090073	0.262351	5706.900879
8003.332432	0.090135	0.262351	5790.546387
8003.333373	0.090139	0.262351	5875.367187
8003.334294	0.090128	0.262351	5958.375000
8003.335182	0.090150	0.262351	6038.428223
8003.336120	0.090081	0.262351	6122.923828
8003.337048	0.090146	0.262351	6206.579590
8003.337966	0.090128	0.262351	6289.317383
8003.338863	0.090095	0.262351	6370.132812
8004.336636	1.083153	0.231567	530.744995
8004.337545	1.541301	0.231567	1931.787842
8004.338468	1.524913	0.231567	3339.282715
8004.339368	1.485813	0.231567	4676.514648
8004.340333	0.883418	0.231567	5529.013184
8004.341221	0.102305	0.231567	5619.859863
8004.342125	0.090088	0.231567	5701.299316
8004.343019	0.090077	0.231567	5781.828125
8004.343975	0.090231	0.231567	5868.088867
8004.344884	0.090190	0.231567	5950.071777
8004.345782	0.090135	0.231567	6031.013672
8004.346706	0.090194	0.231567	6114.353027
8004.347607	0.090293	0.231567	6195.707031
8004.348497	0.090095	0.231567	6275.891602
8004.349385	0.090183	0.231567	6355.974121
8005.361109	1.082714	0.265038	483.972992
8005.362019	1.539836	0.265038	1885.224121
8005.362917	1.527858	0.265038	3257.240234
8005.363882	1.486498	0.265038	4691.710449
8005.364800	0.950281	0.265038	5564.068359
8005.365697	0.107787	0.265038	5660.752930
8005.366583	0.090084	0.265038	5740.567383
8005.367531	0.090227	0.265038	5826.102539
8005.368436	0.090234	0.265038	5907.764648
8005.369330	0.090099	0.265038	5988.312988
8005.370256	0.090157	0.265038	6071.798828
8005.371172	0.090172	0.265038	6154.396484
8005.372070	0.090106	0.265038	6235.312012
8005.372963	0.090157	0.265038	6315.822754
8005.373907	0.090183	0.265038	6400.955566
8006.370820	1.117874	0.229553	556.701050
8006.371742	1.542788	0.229553	1979.151733
8006.372670	1.525679	0.229553	3394.981445
8006.373570	1.486318	0.229553	4732.667969
8006.374550	0.817749	0.229553	5534.062012
8006.375455	0.098163	0.229553	5622.899414
8006.376381	0.090026	0.229553	5706.263184
8006.377274	0.090187	0.229553	5786.799805
8006.378221	0.090187	0.229553	5872.206543
8006.379118	0.090187	0.229553	5953.104004
8006.380044	0.090209	0.229553	6036.637207
8006.380931	0.090179	0.229553	6116.626465
8006.381881	0.090157	0.229553	6202.275879
8006.382806	0.090099	0.229553	6285.617187
8006.383706	0.090157	0.229553	6366.758789
8007.398395	1.106001	0.266831	537.516418
8007.399318	1.543268	0.266831	1961.952637
8007.400249	1.526027	0.266831	3382.683350
8007.401149	1.486725	0.266831	4720.735840
8007.402093	0.875936	0.266831	5547.619629
8007.403042	0.098873	0.266831	5641.450195
8007.403959	0.090095	0.266831	5724.067383
8007.404849	0.090117	0.266831	5804.271484
8007.405796	0.090154	0.266831	5889.646973
8007.406731	0.090209	0.266831	5973.992187
8007.407630	0.090143	0.266831	6055.030762
8007.408562	0.090106	0.266831	6139.009766
8007.409500	0.090088	0.266831	6223.512207
8007.410412	0.090146	0.266831	6305.725586
8007.411309	0.090150	0.266831	6386.590332
8008.403439	1.093081	0.231011	511.561920
8008.404349	1.540807	0.231011	1913.696167
8008.405246	1.525961	0.231011	3282.482910
8008.406212	1.484418	0.231011	4716.430664
8008.407163	0.865034	0.231011	5539.078125
8008.408063	0.099836	0.231011	5628.930664
8008.408973	0.090070	0.231011	5710.894043
8008.409909	0.090132	0.231011	5795.257324
8008.410838	0.090128	0.231011	5878.986328
8008.411731	0.090234	0.231011	5959.565430
8008.412657	0.090172	0.231011	6043.064941
8008.413587	0.090179	0.231011	6126.931641
8008.414506	0.090143	0.231011	6209.772949
8008.415400	0.090183	0.231011	6290.396484
8008.416350	0.090194	0.231011	6376.081055
8009.436670	1.100098	0.262698	543.448242
8009.437596	1.541840	0.262698	1971.191650
8009.438504	1.524463	0.262698	3355.404053
8009.439399	1.485311	0.262698	4684.757812
8009.440371	0.861196	0.262698	5521.840820
8009.441278	0.100477	0.262698	5612.973633
8009.442180	0.090106	0.262698	5694.249512
8009.443068	0.090227	0.262698	5774.371094
8009.443988	0.090319	0.262698	5857.464355
8009.444900	0.090190	0.262698	5939.718262
8009.445788	0.090179	0.262698	6019.797852
8009.446720	0.090231	0.262698	6103.893066
8009.447633	0.090095	0.262698	6186.149902
8009.448540	0.090205	0.262698	6267.965820
8009.449429	0.090234	0.262698	6348.184082
8010.436553	1.072965	0.245739	472.104675
8010.437534	1.540957	0.245739	1983.783691
8010.438437	1.523972	0.245739	3359.930664
8010.439331	1.485029	0.245739	4687.546875
8010.440299	0.882356	0.245739	5541.667480
8010.441216	0.100056	0.245739	5633.418945
8010.442123	0.090143	0.245739	5715.178711
8010.443012	0.090286	0.245739	5795.442871
8010.443948	0.090212	0.245739	5879.881836
8010.444862	0.090150	0.245739	5962.279297
8010.445781	0.090161	0.245739	6045.137207
8010.446670	0.090238	0.245739	6125.358887
8010.447622	0.090212	0.245739	6211.241211
8010.448519	0.090179	0.245739	6292.132324
8010.449445	0.090205	0.245739	6375.662109
8011.471866	1.101812	0.268664	532.174988
8011.472805	1.541660	0.268664	1979.793945
8011.473698	1.524723	0.268664	3341.371582
8011.474626	1.484293	0.268664	4718.795898
8011.475575	0.864265	0.268664	5538.983398
8011.476500	0.099254	0.268664	5630.793457
8011.477399	0.090125	0.268664	5711.815430
8011.478352	0.090198	0.268664	5797.773926
8011.479287	0.090143	0.268664	5882.057617
8011.480188	0.090161	0.268664	5963.292969
8011.481102	0.090293	0.268664	6045.820801
8011.482043	0.090121	0.268664	6130.624512
8011.482975	0.090146	0.268664	6214.641113
8011.483877	0.090190	0.268664	6295.992676
8011.484804	0.090154	0.268664	6379.565430
8012.473797	1.066798	0.268007	464.057159
8012.474745	1.540144	0.268007	1924.113770
8012.475709	1.523701	0.268007	3392.961670
8012.476631	1.484791	0.268007	4761.939453
8012.477527	0.894814	0.268007	5563.693359
8012.478456	0.100822	0.268007	5657.356445
8012.479395	0.090106	0.268007	5741.966309
8012.480320	0.090168	0.268007	5825.372070
8012.481210	0.090205	0.268007	5905.654785
8012.482160	0.090190	0.268007	5991.335937
8012.483104	0.090146	0.268007	6076.434082
8012.483992	0.090176	0.268007	6156.510254
8012.484917	0.090150	0.268007	6239.898926
8012.485851	0.090106	0.268007	6324.058105
8012.486771	0.090282	0.268007	6407.117676
8013.502945	1.096769	0.270867	501.223358
8013.503870	1.540547	0.270867	1926.229248
8013.504775	1.526027	0.270867	3307.283203
8013.505712	1.485817	0.270867	4699.493164
8013.506635	0.935350	0.270867	5562.821289
8013.507539	0.105776	0.270867	5658.443359
8013.508430	0.090044	0.270867	5738.672363
8013.509363	0.090209	0.270867	5822.836914
8013.510266	0.090190	0.270867	5904.278809
8013.511171	0.090146	0.270867	5985.861328
8013.512061	0.090165	0.270867	6066.107910
8013.513013	0.090242	0.270867	6152.018066
8013.513912	0.090146	0.270867	6233.059570
8013.514808	0.090117	0.270867	6313.804687
8013.515737	0.090275	0.270867	6397.669922
8014.517714	1.069468	0.277284	474.843628
8014.518612	1.538624	0.277284	1856.528076
8014.519560	1.526283	0.277284	3303.444336
8014.520488	1.485732	0.277284	4682.204102
8014.521405	0.945916	0.277284	5549.608398
8014.522296	0.107498	0.277284	5645.388672
8014.523252	0.090121	0.277284	5731.544434
8014.524156	0.090143	0.277284	5813.033691
8014.525073	0.090095	0.277284	5895.650879
8014.525968	0.090190	0.277284	5976.371094
8014.526903	0.090150	0.277284	6060.661621
8014.527800	0.090125	0.277284	6141.503418
8014.528694	0.090143	0.277284	6222.091309
8014.529627	0.090183	0.277284	6306.231934
8014.530533	0.090004	0.277284	6387.775391
8015.532492	1.069508	0.263056	471.653076
8015.533468	1.541880	0.263056	1976.527710
8015.534374	1.524445	0.263056	3357.674316
8015.535303	1.484220	0.263056	4736.514648
8015.536205	0.898143	0.263056	5546.640137
8015.537162	0.100074	0.263056	5642.411621
8015.538052	0.090022	0.263056	5722.531250
8015.538941	0.090161	0.263056	5802.684570
8015.539869	0.090183	0.263056	5886.374512
8015.540774	0.090165	0.263056	5967.973633
8015.541696	0.090132	0.263056	6051.075195
8015.542594	0.090062	0.263056	6131.951172
8015.543554	0.090154	0.263056	6218.499023
8015.544460	0.090139	0.263056	6300.165039
8015.545391	0.090121	0.263056	6384.067383
8016.561653	1.121345	0.260611	536.002991
8016.562581	1.541671	0.260611	1966.673828
8016.563475	1.525287	0.260611	3330.280273
8016.564408	1.484421	0.260611	4715.245117
8016.565364	0.861368	0.260611	5538.713379
8016.566279	0.099573	0.260611	5629.822266
8016.567170	0.090051	0.260611	5710.058105
8016.568116	0.090176	0.260611	5795.364258
8016.569055	0.090092	0.260611	5879.960449
8016.569956	0.090220	0.260611	5961.248535
8016.570872	0.090146	0.260611	6043.822754
8016.571807	0.090106	0.260611	6128.072266
8016.572722	0.090238	0.260611	6210.640137
8016.573611	0.090135	0.260611	6290.770508
8016.574550	0.090168	0.260611	6375.438477
8017.563589	1.063857	0.250472	462.777985
8017.564524	1.539177	0.250472	1901.908691
8017.565477	1.524100	0.250472	3354.376221
8017.566402	1.483964	0.250472	4727.042480
8017.567304	0.904336	0.250472	5542.753418
8017.568264	0.100122	0.250472	5638.870605
8017.569196	0.090106	0.250472	5722.849609
8017.570111	0.090110	0.250472	5805.300293
8017.571000	0.090106	0.250472	5885.404785
8017.571938	0.090154	0.250472	5969.969238
8017.572864	0.090110	0.250472	6053.411133
8017.573754	0.090216	0.250472	6133.703613
8017.574670	0.090165	0.250472	6216.294434
8017.575606	0.090099	0.250472	6300.626953
8017.576526	0.090143	0.250472	6383.558594
8018.599890	1.081677	0.262803	482.428040
8018.600799	1.539657	0.262803	1881.976318
8018.601696	1.526733	0.262803	3251.456055
8018.602654	1.486457	0.262803	4675.482422
8018.603577	0.950878	0.262803	5553.142578
8018.604468	0.108036	0.262803	5649.402344
8018.605355	0.090051	0.262803	5729.277832
8018.606298	0.090168	0.262803	5814.306641
8018.607199	0.090125	0.262803	5895.508789
8018.608090	0.090146	0.262803	5975.829102
8018.609019	0.090194	0.262803	6059.619629
8018.609927	0.090132	0.262803	6141.459473
8018.610835	0.090125	0.262803	6223.292480
8018.611723	0.090146	0.262803	6303.342773
8018.612686	0.090190	0.262803	6390.196289
8019.601867	1.064308	0.276483	461.909637
8019.602828	1.539133	0.276483	1941.016724
8019.603739	1.525386	0.276483	3330.643066
8019.604670	1.485282	0.276483	4713.440430
8019.605570	0.935614	0.276483	5555.493164
8019.606520	0.101466	0.276483	5651.885742
8019.607419	0.090117	0.276483	5732.900879
8019.608306	0.090183	0.276483	5812.893066
8019.609216	0.090245	0.276483	5895.016113
8019.610166	0.090103	0.276483	5980.613281
8019.611064	0.090165	0.276483	6061.581055
8019.611950	0.090117	0.276483	6141.424805
8019.612894	0.090209	0.276483	6226.582031
8019.613813	0.090095	0.276483	6309.379395
8019.614744	0.090128	0.276483	6393.288574
8020.630482	1.072482	0.259173	468.674469
8020.631415	1.540375	0.259173	1905.844116
8020.632350	1.525422	0.259173	3332.114014
8020.633260	1.486040	0.259173	4684.410156
8020.634207	0.887362	0.259173	5524.742187
8020.635161	0.099529	0.259173	5619.692871
8020.636054	0.090117	0.259173	5700.167480
8020.636981	0.090088	0.259173	5783.678711
8020.637912	0.090135	0.259173	5867.594727
8020.638824	0.090150	0.259173	5949.811523
8020.639720	0.090176	0.259173	6030.608887
8020.640670	0.090106	0.259173	6116.209961
8020.641607	0.090220	0.259173	6200.745605
8020.642504	0.090121	0.259173	6281.583984
8020.643421	0.090187	0.259173	6364.285156
8021.647360	1.134950	0.280398	560.665283
8021.648314	1.542140	0.280398	2031.866699
8021.649240	1.522588	0.280398	3441.783203
8021.650138	1.482550	0.280398	4773.113281
8021.651091	0.810828	0.280398	5545.832031
8021.652039	0.096573	0.280398	5637.383789
8021.652942	0.090165	0.280398	5718.802734
8021.653856	0.090179	0.280398	5801.226562
8021.654797	0.090143	0.280398	5886.050781
8021.655729	0.090088	0.280398	5970.012695
8021.656627	0.090198	0.280398	6051.010254
8021.657545	0.090114	0.280398	6133.734375
8021.658489	0.090157	0.280398	6218.843262
8021.659411	0.090209	0.280398	6302.015625
8021.660300	0.090143	0.280398	6382.152832
8022.658535	1.074924	0.234504	489.090576
8022.659433	1.539104	0.234504	1871.205933
8022.660330	1.527114	0.234504	3241.027344
8022.661283	1.486154	0.234504	4657.332031
8022.662241	0.907507	0.234504	5526.724121
8022.663143	0.102444	0.234504	5619.128418
8022.664068	0.090004	0.234504	5702.381836
8022.664993	0.090135	0.234504	5785.757324
8022.665915	0.090157	0.234504	5868.882324
8022.666811	0.090168	0.234504	5949.673340
8022.667737	0.090176	0.234504	6033.176270
8022.668673	0.090135	0.234504	6117.542969
8022.669607	0.090187	0.234504	6201.777344
8022.670495	0.090245	0.234504	6281.915039
8022.671430	0.090264	0.234504	6366.311523
8023.690696	1.067747	0.259507	467.672974
8023.691593	1.539851	0.259507	1848.919434
8023.692583	1.526547	0.259507	3360.200684
8023.693495	1.486769	0.259507	4716.133789
8023.694396	0.940770	0.259507	5563.767578
8023.695326	0.106003	0.259507	5662.350586
8023.696232	0.090161	0.259507	5744.036621
8023.697134	0.090223	0.259507	5825.417969
8023.698022	0.090132	0.259507	5905.455078
8023.698969	0.090293	0.259507	5990.962402
8023.699872	0.090238	0.259507	6072.447266
8023.700776	0.090176	0.259507	6153.966309
8023.701670	0.090216	0.259507	6234.619629
8023.702620	0.090253	0.259507	6320.359863
8023.703524	0.090205	0.259507	6401.905273
8024.692234	1.098171	0.232824	550.183838
8024.693142	1.542436	0.232824	1950.716187
8024.694057	1.526049	0.232824	3347.050781
8024.694957	1.486761	0.232824	4685.136230
8024.695918	0.872871	0.232824	5523.965332
8024.696831	0.100316	0.232824	5615.554199
8024.697753	0.090132	0.232824	5698.655762
8024.698643	0.090231	0.232824	5778.960937
8024.699598	0.090165	0.232824	5865.068359
8024.700499	0.090146	0.232824	5946.290527
8024.701390	0.090168	0.232824	6026.630859
8024.702334	0.090176	0.232824	6111.756836
8024.703251	0.090249	0.232824	6194.515137
8024.704173	0.090194	0.232824	6277.674316
8024.705065	0.090234	0.232824	6358.163574
8025.724887	1.079476	0.260788	481.446442
8025.725782	1.540074	0.260788	1859.813110
8025.726756	1.526583	0.260788	3346.705078
8025.727697	1.485670	0.260788	4744.720703
8025.728606	0.900319	0.260788	5563.110352
8025.729536	0.103286	0.260788	5659.166504
8025.730467	0.090150	0.260788	5743.096191
8025.731406	0.090209	0.260788	5827.802246
8025.732310	0.090194	0.260788	5909.337891
8025.733231	0.090176	0.260788	5992.389648
8025.734168	0.090205	0.260788	6076.911621
8025.735089	0.090194	0.260788	6159.980469
8025.735988	0.090216	0.260788	6241.084473
8025.736941	0.090154	0.260788	6327.000977
8025.737872	0.090256	0.260788	6411.029785
8026.734557	1.095352	0.259733	495.098907
8026.735491	1.541993	0.259733	1935.320679
8026.736415	1.526429	0.259733	3345.741455
8026.737329	1.486395	0.259733	4704.306641
8026.738273	0.896913	0.259733	5550.992187
8026.739176	0.102803	0.259733	5643.823242
8026.740069	0.090110	0.259733	5724.291504
8026.740981	0.090125	0.259733	5806.484863
8026.741901	0.090227	0.259733	5889.493652
8026.742800	0.090106	0.259733	5970.499023
8026.743697	0.090161	0.259733	6051.373535
8026.744630	0.090161	0.259733	6135.493652
8026.745534	0.090223	0.259733	6217.055664
8026.746434	0.090220	0.259733	6298.253418
8026.747321	0.090146	0.259733	6378.213379
8027.752911	1.066582	0.251705	474.628967
8027.753808	1.540404	0.251705	1856.371338
8027.754750	1.528312	0.251705	3296.041016
8027.755676	1.487765	0.251705	4673.711426
8027.756594	0.958209	0.251705	5553.347656
8027.757484	0.108629	0.251705	5650.027832
8027.758435	0.090048	0.251705	5735.663086
8027.759341	0.090168	0.251705	5817.355469
8027.760240	0.090084	0.251705	5898.341309
8027.761127	0.090139	0.251705	5978.294922
8027.762065	0.090161	0.251705	6062.866211
8027.762970	0.090110	0.251705	6144.415527
8027.763861	0.090223	0.251705	6224.804687
8027.764787	0.090205	0.251705	6308.334473
8027.765692	0.090183	0.251705	6389.950195
8028.778978	1.093473	0.245650	496.436676
8028.779879	1.540576	0.245650	1884.495728
8028.780775	1.528715	0.245650	3254.224121
8028.781708	1.489010	0.245650	4643.470703
8028.782641	0.974315	0.245650	5552.506836
8028.783531	0.109907	0.245650	5650.324219
8028.784440	0.090073	0.245650	5732.200684
8028.785335	0.090154	0.245650	5812.888184
8028.786284	0.090157	0.245650	5898.447754
8028.787208	0.090092	0.245650	5981.692383
8028.788104	0.090238	0.245650	6062.545898
8028.789046	0.090121	0.245650	6147.439941
8028.789958	0.090161	0.245650	6229.666992
8028.790877	0.090168	0.245650	6312.531738
8028.791764	0.090161	0.245650	6392.504883
8029.785042	1.065121	0.225549	467.588043
8029.785990	1.538588	0.225549	1926.169067
8029.786924	1.524584	0.225549	3350.130371
8029.787846	1.484158	0.225549	4718.523926
8029.788754	0.914421	0.225549	5548.818359
8029.789698	0.101492	0.225549	5644.626465
8029.790633	0.090055	0.225549	5728.827637
8029.791535	0.090055	0.225549	5810.057129
8029.792457	0.090121	0.225549	5893.148437
8029.793390	0.090150	0.225549	5977.258301
8029.794310	0.090168	0.225549	6060.213379
8029.795210	0.090150	0.225549	6141.348633
8029.796131	0.090106	0.225549	6224.336426
8029.797055	0.090179	0.225549	6307.662109
8029.797995	0.090135	0.225549	6392.389648
8030.818771	1.078605	0.234322	482.136292
8030.819668	1.538815	0.234322	1862.453125
8030.820648	1.525261	0.234322	3357.208984
8030.821594	1.483861	0.234322	4760.941406
8030.822503	0.882433	0.234322	5563.072754
8030.823427	0.101865	0.234322	5657.196289
8030.824351	0.090099	0.234322	5740.447754
8030.825274	0.090117	0.234322	5823.625977
8030.826170	0.090161	0.234322	5904.410156
8030.827087	0.090154	0.234322	5987.081055
8030.828034	0.090103	0.234322	6072.408203
8030.828950	0.090139	0.234322	6154.975586
8030.829843	0.090143	0.234322	6235.473145
8030.830797	0.090143	0.234322	6321.469238
8030.831729	0.090154	0.234322	6405.492676
8031.817698	1.081794	0.236760	490.052856
8031.818609	1.539814	0.236760	1892.823853
8031.819523	1.526276	0.236760	3287.839844
8031.820434	1.486809	0.236760	4642.322754
8031.821385	0.938690	0.236760	5535.017090
8031.822288	0.105677	0.236760	5630.443848
8031.823185	0.090040	0.236760	5711.209961
8031.824113	0.090275	0.236760	5794.984863
8031.825006	0.090212	0.236760	5875.544434
8031.825904	0.090110	0.236760	5956.462891
8031.826793	0.090187	0.236760	6036.639160
8031.827727	0.090249	0.236760	6120.931641
8031.828625	0.090106	0.236760	6201.847168
8031.829527	0.090179	0.236760	6283.188965
8031.830434	0.090154	0.236760	6364.958496
8032.852460	1.089741	0.247725	500.191223
8032.853370	1.540038	0.247725	1901.625732
8032.854267	1.526254	0.247725	3270.675293
8032.855240	1.484560	0.247725	4715.152832
8032.856151	0.919504	0.247725	5552.821289
8032.857038	0.104835	0.247725	5645.810059
8032.857965	0.090146	0.247725	5729.375977
8032.858891	0.090092	0.247725	5812.800781
8032.859791	0.090168	0.247725	5893.952148
8032.860681	0.090154	0.247725	5974.188965
8032.861609	0.090256	0.247725	6057.946777
8032.862526	0.090110	0.247725	6140.577637
8032.863440	0.090154	0.247725	6222.978027
8032.864335	0.090205	0.247725	6303.711426
8032.865291	0.090176	0.247725	6389.919434
8033.855964	1.105005	0.262025	507.197266
8033.856904	1.541316	0.262025	1956.034180
8033.857797	1.525928	0.262025	3318.687500
8033.858764	1.484161	0.262025	4753.871582
8033.859692	0.860903	0.262025	5552.790039
8033.860619	0.099613	0.262025	5645.131348
8033.861505	0.090121	0.262025	5724.978516
8033.862460	0.090088	0.262025	5811.012695
8033.863377	0.090165	0.262025	5893.693848
8033.864273	0.090150	0.262025	5974.468262
8033.865213	0.090117	0.262025	6059.178223
8033.866129	0.090106	0.262025	6141.715332
8033.867044	0.090176	0.262025	6224.226074
8033.867942	0.090194	0.262025	6305.220215
8033.868893	0.090234	0.262025	6391.033203
8034.884558	1.064315	0.248140	462.977112
8034.885457	1.538284	0.248140	1845.894043
8034.886412	1.526151	0.248140	3303.368408
8034.887347	1.484817	0.248140	4691.671875
8034.888281	0.914454	0.248140	5545.772461
8034.889174	0.104890	0.248140	5639.439453
8034.890118	0.090073	0.248140	5724.468750
8034.891056	0.090154	0.248140	5809.033203
8034.891944	0.090183	0.248140	5889.115723
8034.892858	0.090165	0.248140	5971.526367
8034.893794	0.090157	0.248140	6055.913574
8034.894709	0.090121	0.248140	6138.374023
8034.895604	0.090095	0.248140	6219.009277
8034.896551	0.090231	0.248140	6304.458008
8034.897494	0.090135	0.248140	6389.455566
8035.896822	1.080780	0.274610	519.855225
8035.897733	1.541719	0.274610	1924.361084
8035.898650	1.526821	0.274610	3324.456055
8035.899550	1.488094	0.274610	4663.741211
8035.900518	0.887838	0.274610	5523.168457
8035.901417	0.102499	0.274610	5615.314941
8035.902320	0.090088	0.274610	5696.664062
8035.903207	0.090212	0.274610	5776.682617
8035.904138	0.090267	0.274610	5860.721680
8035.905055	0.090117	0.274610	5943.359375
8035.905954	0.090187	0.274610	6024.437500
8035.906890	0.090161	0.274610	6108.828125
8035.907788	0.090286	0.274610	6189.904785
8035.908691	0.090150	0.274610	6271.310547
8035.909580	0.090135	0.274610	6351.440918
8036.917735	1.093337	0.240760	497.468536
8036.918648	1.541188	0.240760	1904.572876
8036.919549	1.528352	0.240760	3281.618164
8036.920484	1.488109	0.240760	4673.000000
8036.921417	0.933552	0.240760	5544.004395
8036.922324	0.104802	0.240760	5639.060059
8036.923212	0.090081	0.240760	5719.051758
8036.924145	0.090238	0.240760	5803.243652
8036.925065	0.090157	0.240760	5886.188477
8036.925974	0.090099	0.240760	5968.088379
8036.926863	0.090172	0.240760	6048.251465
8036.927803	0.090157	0.240760	6132.999512
8036.928695	0.090099	0.240760	6213.367676
8036.929589	0.090209	0.240760	6294.014160
8036.930519	0.090220	0.240760	6377.918457
8037.935567	1.077316	0.265659	477.250854
8037.936469	1.540785	0.265659	1867.038940
8037.937384	1.528890	0.265659	3265.973633
8037.938333	1.487970	0.265659	4678.057129
8037.939248	0.962278	0.265659	5558.541504
8037.940141	0.108768	0.265659	5655.671387
8037.941101	0.090125	0.265659	5742.190918
8037.942005	0.090179	0.265659	5823.712891
8037.942928	0.090172	0.265659	5906.941895
8037.943817	0.090150	0.265659	5987.085449
8037.944759	0.090179	0.265659	6072.034668
8037.945661	0.090216	0.265659	6153.409668
8037.946571	0.090154	0.265659	6235.449707
8037.947465	0.090146	0.265659	6316.040527
8037.948422	0.090176	0.265659	6402.338867
8038.950858	1.072379	0.232562	469.702057
8038.951824	1.542982	0.232562	1960.222900
8038.952757	1.525942	0.232562	3383.927246
8038.953666	1.486326	0.232562	4734.997070
8038.954617	0.867616	0.232562	5560.099609
8038.955540	0.099071	0.232562	5651.541992
8038.956462	0.090055	0.232562	5734.572754
8038.957352	0.090128	0.232562	5814.786621
8038.958307	0.090092	0.232562	5900.824219
8038.959228	0.090051	0.232562	5983.761230
8038.960136	0.090168	0.232562	6065.634277
8038.961036	0.090168	0.232562	6146.786133
8038.961961	0.090172	0.232562	6230.195312
8038.962897	0.090117	0.232562	6314.544922
8038.963812	0.090183	0.232562	6397.062500
8039.973350	1.098999	0.257397	508.836548
8039.974263	1.541869	0.257397	1916.562866
8039.975162	1.527400	0.257397	3289.695312
8039.976130	1.485721	0.257397	4727.873535
8039.977088	0.851367	0.257397	5543.483398
8039.977986	0.099844	0.257397	5633.143066
8039.978914	0.090011	0.257397	5716.673340
8039.979848	0.090103	0.257397	5800.829102
8039.980764	0.090194	0.257397	5883.446777
8039.981651	0.090132	0.257397	5963.393555
8039.982604	0.090157	0.257397	6049.313477
8039.983532	0.090205	0.257397	6133.023926
8039.984453	0.090095	0.257397	6216.001465
8039.985350	0.090176	0.257397	6296.889160
8039.986289	0.090209	0.257397	6381.595215
8040.985594	1.086057	0.231777	525.651611
8040.986535	1.542623	0.231777	1977.260132
8040.987462	1.523851	0.231777	3389.870117
8040.988367	1.484264	0.231777	4733.128906
8040.989337	0.824879	0.231777	5533.261719
8040.990278	0.096903	0.231777	5624.447754
8040.991194	0.090044	0.231777	5706.928223
8040.992085	0.090099	0.231777	5787.206543
8040.993035	0.090245	0.231777	5872.939453
8040.993937	0.090242	0.231777	5954.337402
8040.994827	0.090084	0.231777	6034.512207
8040.995730	0.090220	0.231777	6115.980469
8040.996670	0.090271	0.231777	6200.834961
8040.997575	0.090242	0.231777	6282.503906
8040.998476	0.090201	0.231777	6363.775391
8042.008521	1.065828	0.257240	463.635010
8042.009442	1.538123	0.257240	1880.245850
8042.010375	1.526250	0.257240	3304.237061
8042.011291	1.486831	0.257240	4666.174316
8042.012197	0.977190	0.257240	5551.508301
8042.013086	0.110522	0.257240	5649.762695
8042.014044	0.090165	0.257240	5736.140625
8042.014949	0.090205	0.257240	5817.776367
8042.015846	0.090187	0.257240	5898.673828
8042.016775	0.090198	0.257240	5982.467773
8042.017684	0.090209	0.257240	6064.467285
8042.018597	0.090260	0.257240	6146.874512
8042.019493	0.090194	0.257240	6227.688477
8042.020439	0.090275	0.257240	6313.088379
8042.021350	0.090242	0.257240	6395.298340
8043.021271	1.082340	0.223067	484.888306
8043.022176	1.539426	0.223067	1878.069092
8043.023073	1.527887	0.223067	3248.583740
8043.024030	1.486483	0.223067	4671.148437
8043.024950	0.943879	0.223067	5539.517578
8043.025878	0.104315	0.223067	5636.322266
8043.026767	0.090088	0.223067	5716.410156
8043.027714	0.090154	0.223067	5801.785645
8043.028615	0.090154	0.223067	5883.014160
8043.029502	0.090150	0.223067	5962.977539
8043.030440	0.090179	0.223067	6047.565918
8043.031341	0.090165	0.223067	6128.804199
8043.032260	0.090245	0.223067	6211.739746
8043.033161	0.090154	0.223067	6292.968262
8043.034117	0.090187	0.223067	6379.187012
8044.044782	1.123916	0.241187	536.107971
8044.045742	1.542286	0.241187	2016.702881
8044.046664	1.523613	0.241187	3421.474365
8044.047560	1.483608	0.241187	4750.787598
8044.048527	0.817181	0.241187	5541.001953
8044.049476	0.096544	0.241187	5632.622559
8044.050376	0.090125	0.241187	5713.734375
8044.051309	0.090135	0.241187	5797.830566
8044.052251	0.090165	0.241187	5882.765625
8044.053175	0.090190	0.241187	5966.101562
8044.054061	0.090143	0.241187	6045.968262
8044.054996	0.090176	0.241187	6130.282715
8044.055932	0.090106	0.241187	6214.622070
8044.056835	0.090161	0.241187	6296.037598
8044.057752	0.090103	0.241187	6378.661621
8045.059557	1.077968	0.214511	489.397247
8045.060455	1.540111	0.214511	1872.416992
8045.061378	1.527664	0.214511	3282.450439
8045.062321	1.486241	0.214511	4683.976074
8045.063264	0.903087	0.214511	5535.587402
8045.064160	0.103429	0.214511	5628.259766
8045.065075	0.090029	0.214511	5710.636719
8045.066014	0.090121	0.214511	5795.260254
8045.066953	0.090040	0.214511	5879.808105
8045.067852	0.090212	0.214511	5960.909180
8045.068769	0.090088	0.214511	6043.519531
8045.069700	0.090070	0.214511	6127.374512
8045.070616	0.090117	0.214511	6209.921875
8045.071506	0.090154	0.214511	6290.158691
8045.072459	0.090146	0.214511	6376.068359
8046.079485	1.138901	0.235595	560.339478
8046.080391	1.541829	0.235595	1957.236084
8046.081300	1.525620	0.235595	3344.024902
8046.082193	1.486165	0.235595	4671.169922
8046.083161	0.901088	0.235595	5543.422852
8046.084067	0.102642	0.235595	5636.416016
8046.084965	0.090081	0.235595	5717.308594
8046.085900	0.090205	0.235595	5801.650391
8046.086802	0.090198	0.235595	5883.008789
8046.087696	0.090103	0.235595	5963.560547
8046.088581	0.090103	0.235595	6043.301270
8046.089520	0.090264	0.235595	6128.059082
8046.090424	0.090150	0.235595	6209.554687
8046.091324	0.090099	0.235595	6290.643555
8046.092212	0.090154	0.235595	6370.700195
8047.100383	1.082670	0.204767	479.622681
8047.101296	1.540228	0.204767	1885.851074
8047.102190	1.527887	0.204767	3251.781982
8047.103148	1.486776	0.204767	4676.113281
8047.104071	0.949592	0.204767	5552.586914
8047.104970	0.106974	0.204767	5648.756348
8047.105856	0.090055	0.204767	5728.544922
8047.106787	0.090223	0.204767	5812.542969
8047.107687	0.090139	0.204767	5893.668457
8047.108606	0.090084	0.204767	5976.456055
8047.109503	0.090209	0.204767	6057.373047
8047.110460	0.090165	0.204767	6143.660645
8047.111361	0.090190	0.204767	6224.922363
8047.112254	0.090231	0.204767	6305.498535
8047.113168	0.090187	0.204767	6387.929199
8048.113094	1.059767	0.229666	458.878998
8048.114031	1.539331	0.229666	1901.232300
8048.114975	1.525668	0.229666	3341.462402
8048.115891	1.485553	0.229666	4702.229004
8048.116796	0.932087	0.229666	5545.768066
8048.117748	0.101829	0.229666	5642.708984
8048.118681	0.090022	0.229666	5726.699707
8048.119594	0.090194	0.229666	5809.046875
8048.120480	0.090201	0.229666	5888.965332
8048.121428	0.090187	0.229666	5974.462402
8048.122364	0.090150	0.229666	6058.842773
8048.123253	0.090176	0.229666	6139.009277
8048.124171	0.090146	0.229666	6221.763672
8048.125115	0.090139	0.229666	6306.854980
8048.126031	0.090264	0.229666	6389.536621
8049.141236	1.081044	0.204102	519.982056
8049.142175	1.543319	0.204102	1969.158691
8049.143117	1.525752	0.204102	3406.416992
8049.144013	1.486454	0.204102	4738.279785
8049.144945	0.875544	0.204102	5554.287109
8049.145884	0.099719	0.204102	5647.923340
8049.146804	0.090029	0.204102	5730.750488
8049.147692	0.090077	0.204102	5810.738770
8049.148629	0.090179	0.204102	5895.236816
8049.149548	0.090154	0.204102	5978.088379
8049.150470	0.090161	0.204102	6061.216797
8049.151363	0.090077	0.204102	6141.655273
8049.152324	0.090070	0.204102	6228.211914
8049.153264	0.090044	0.204102	6312.853027
8049.154161	0.090088	0.204102	6393.662109
8050.145237	1.092429	0.234133	492.685547
8050.146202	1.542535	0.234133	1981.232178
8050.147125	1.524664	0.234133	3388.497314
8050.148026	1.485264	0.234133	4726.719727
8050.148983	0.869198	0.234133	5558.541992
8050.149876	0.101016	0.234133	5648.749023
8050.150780	0.090088	0.234133	5730.188477
8050.151673	0.090121	0.234133	5810.666504
8050.152612	0.090271	0.234133	5895.431152
8050.153525	0.090205	0.234133	5977.788574
8050.154429	0.090157	0.234133	6059.291016
8050.155347	0.090212	0.234133	6142.105957
8050.156255	0.090216	0.234133	6224.021973
8050.157168	0.090150	0.234133	6306.329102
8050.158060	0.090055	0.234133	6386.658203
8051.180517	1.092905	0.217198	501.643524
8051.181422	1.540492	0.217198	1895.788818
8051.182337	1.526814	0.217198	3292.823730
8051.183263	1.486487	0.217198	4669.310547
8051.184172	0.952071	0.217198	5534.743652
8051.185097	0.104832	0.217198	5631.712891
8051.185984	0.090011	0.217198	5711.552734
8051.186942	0.090103	0.217198	5797.871094
8051.187842	0.090077	0.217198	5878.940430
8051.188730	0.090132	0.217198	5958.977539
8051.189672	0.090216	0.217198	6043.960937
8051.190578	0.090055	0.217198	6125.550781
8051.191502	0.090172	0.217198	6208.869629
8051.192395	0.090165	0.217198	6289.386719
8051.193328	0.090198	0.217198	6373.541016
8052.179460	1.095516	0.234189	546.662659
8052.180374	1.542473	0.234189	1956.483154
8052.181314	1.524346	0.234189	3389.368164
8052.182210	1.485337	0.234189	4720.229980
8052.183162	0.853239	0.234189	5532.513184
8052.184071	0.099364	0.234189	5622.834961
8052.185003	0.090084	0.234189	5706.793457
8052.185891	0.090194	0.234189	5786.885742
8052.186836	0.090106	0.234189	5872.036133
8052.187733	0.090121	0.234189	5952.874512
8052.188654	0.090165	0.234189	6035.916504
8052.189541	0.090121	0.234189	6115.853516
8052.190473	0.090081	0.234189	6199.808594
8052.191399	0.090231	0.234189	6283.362305
8052.192301	0.090114	0.234189	6364.644531
8053.216714	1.067021	0.220493	467.355408
8053.217665	1.541224	0.220493	1933.059814
8053.218622	1.524265	0.220493	3391.781738
8053.219548	1.483795	0.220493	4765.776367
8053.220457	0.870333	0.220493	5556.909180
8053.221405	0.098705	0.220493	5650.481445
8053.222337	0.090070	0.220493	5734.426270
8053.223255	0.090121	0.220493	5817.157227
8053.224144	0.090135	0.220493	5897.287598
8053.225077	0.090037	0.220493	5981.291992
8053.226013	0.090099	0.220493	6065.624512
8053.226909	0.090168	0.220493	6146.415527
8053.227830	0.090139	0.220493	6229.433594
8053.228765	0.090242	0.220493	6313.809570
8053.229675	0.090157	0.220493	6395.853027
8054.217158	1.065011	0.227329	465.409821
8054.218053	1.538460	0.227329	1842.331055
8054.219033	1.525756	0.227329	3337.571289
8054.219954	1.485765	0.227329	4705.961426
8054.220857	0.941964	0.227329	5556.555176
8054.221791	0.106040	0.227329	5655.596680
8054.222694	0.090125	0.227329	5736.979004
8054.223594	0.090223	0.227329	5818.180176
8054.224478	0.090179	0.227329	5897.898926
8054.225431	0.090194	0.227329	5983.854004
8054.226324	0.090172	0.227329	6064.377930
8054.227222	0.090198	0.227329	6145.375488
8054.228110	0.090168	0.227329	6225.445312
8054.229057	0.090234	0.227329	6310.897461
8054.229965	0.090139	0.227329	6392.743652
8055.248910	1.128179	0.224936	567.473877
8055.249839	1.542455	0.224936	2000.414429
8055.250742	1.524932	0.224936	3377.427734
8055.251636	1.485315	0.224936	4705.299316
8055.252584	0.881393	0.224936	5540.859863
8055.253484	0.101660	0.224936	5632.354004
8055.254373	0.090077	0.224936	5712.432129
8055.255292	0.090150	0.224936	5795.280273
8055.256203	0.090168	0.224936	5877.423828
8055.257112	0.090157	0.224936	5959.376953
8055.258006	0.090231	0.224936	6040.042969
8055.258951	0.090201	0.224936	6125.283203
8055.259867	0.090143	0.224936	6207.854004
8055.260763	0.090092	0.224936	6288.576172
8055.261652	0.090172	0.224936	6368.739258
8056.261080	1.072233	0.216380	483.576904
8056.261973	1.540085	0.216380	1858.873169
8056.262927	1.526946	0.216380	3315.579590
8056.263849	1.486465	0.216380	4686.100098
8056.264781	0.924726	0.216380	5547.945312
8056.265672	0.105238	0.216380	5641.712402
8056.266621	0.090007	0.216380	5727.129395
8056.267549	0.090135	0.216380	5810.774902
8056.268442	0.090187	0.216380	5891.311523
8056.269348	0.090117	0.216380	5972.957520
8056.270296	0.090139	0.216380	6058.409668
8056.271210	0.090194	0.216380	6140.847168
8056.272104	0.090150	0.216380	6221.441406
8056.273030	0.090117	0.216380	6304.890137
8056.273945	0.090106	0.216380	6387.337402
8057.276920	1.106997	0.228884	535.786621
8057.277874	1.542656	0.228884	2007.480591
8057.278802	1.523756	0.228884	3421.526367
8057.279697	1.484099	0.228884	4749.794922
8057.280654	0.829094	0.228884	5543.238281
8057.281596	0.097877	0.228884	5635.438477
8057.282491	0.090114	0.228884	5716.089844
8057.283415	0.090070	0.228884	5799.313965
8057.284341	0.090190	0.228884	5882.830078
8057.285277	0.090319	0.228884	5967.368164
8057.286174	0.090212	0.228884	6048.288574
8057.287098	0.090132	0.228884	6131.570312
8057.288032	0.090139	0.228884	6215.760254
8057.288949	0.090117	0.228884	6298.397949
8057.289848	0.090194	0.228884	6379.482422
8058.303947	1.066952	0.234854	464.124054
8058.304901	1.540408	0.234854	1933.672974
8058.305817	1.525906	0.234854	3331.402588
8058.306717	1.486703	0.234854	4669.435059
8058.307623	0.959059	0.234854	5538.342285
8058.308562	0.103971	0.234854	5635.971191
8058.309468	0.090117	0.234854	5717.617187
8058.310368	0.090183	0.234854	5798.782227
8058.311295	0.090253	0.234854	5882.446289
8058.312197	0.090253	0.234854	5963.854004
8058.313096	0.090231	0.234854	6044.971191
8058.313986	0.090249	0.234854	6125.292969
8058.314939	0.090179	0.234854	6211.233887
8058.315840	0.090201	0.234854	6292.505371
8058.316739	0.090205	0.234854	6373.599609
8059.306464	1.080908	0.234794	486.408691
8059.307365	1.539932	0.234794	1873.887085
8059.308302	1.527242	0.234794	3304.913086
8059.309209	1.487153	0.234794	4653.761230
8059.310128	0.974125	0.234794	5548.981934
8059.311015	0.109695	0.234794	5646.281250
8059.311939	0.090077	0.234794	5729.512207
8059.312871	0.090176	0.234794	5813.556152
8059.313774	0.090143	0.234794	5894.955078
8059.314664	0.090066	0.234794	5975.113770
8059.315596	0.090161	0.234794	6059.144043
8059.316519	0.090172	0.234794	6142.373047
8059.317439	0.090135	0.234794	6225.297852
8059.318331	0.090227	0.234794	6305.780273
8059.319276	0.090227	0.234794	6391.044922
8060.343768	1.083138	0.233041	485.246033
8060.344666	1.539723	0.233041	1867.917236
8060.345581	1.527696	0.233041	3265.759521
8060.346518	1.487362	0.233041	4659.417969
8060.347445	0.946824	0.233041	5537.123535
8060.348343	0.106761	0.233041	5632.995117
8060.349294	0.090066	0.233041	5718.647949
8060.350206	0.090223	0.233041	5800.931641
8060.351126	0.090168	0.233041	5883.886719
8060.352013	0.090121	0.233041	5963.823730
8060.352961	0.090179	0.233041	6049.313965
8060.353889	0.090198	0.233041	6133.017578
8060.354808	0.090092	0.233041	6215.811523
8060.355695	0.090190	0.233041	6295.810547
8060.356633	0.090198	0.233041	6380.416016
8061.343745	1.111018	0.214197	536.621704
8061.344646	1.541697	0.214197	1925.690552
8061.345542	1.527151	0.214197	3294.017578
8061.346471	1.486637	0.214197	4675.103516
8061.347430	0.889523	0.214197	5528.155762
8061.348353	0.100547	0.214197	5620.960449
8061.349240	0.090146	0.214197	5700.920410
8061.350202	0.090132	0.214197	5787.627441
8061.351141	0.090066	0.214197	5872.199219
8061.352039	0.090183	0.214197	5953.183594
8061.352970	0.090190	0.214197	6037.150879
8061.353907	0.090106	0.214197	6121.580566
8061.354843	0.090146	0.214197	6205.957520
8061.355731	0.090125	0.214197	6285.988281
8061.356651	0.090073	0.214197	6368.855469
8062.376395	1.062319	0.233259	462.108887
8062.377363	1.539723	0.233259	1952.560669
8062.378272	1.526312	0.233259	3339.978516
8062.379178	1.486362	0.233259	4686.623047
8062.380085	0.953668	0.233259	5551.600098
8062.381021	0.106370	0.233259	5651.162109
8062.381925	0.090179	0.233259	5732.684570
8062.382830	0.090176	0.233259	5814.293457
8062.383720	0.090227	0.233259	5894.595703
8062.384674	0.090300	0.233259	5980.742187
8062.385581	0.090227	0.233259	6062.578125
8062.386481	0.090143	0.233259	6143.706543
8062.387384	0.090242	0.233259	6225.194824
8062.388307	0.090300	0.233259	6308.541992
8062.389210	0.090168	0.233259	6389.963867
8063.389139	1.076272	0.203647	478.941040
8063.390042	1.539628	0.203647	1869.224854
8063.390935	1.527609	0.203647	3233.379395
8063.391902	1.486472	0.203647	4670.797852
8063.392826	0.948270	0.203647	5546.999512
8063.393716	0.107776	0.203647	5642.919922
8063.394667	0.090216	0.203647	5728.715332
8063.395568	0.090271	0.203647	5810.049316
8063.396468	0.090135	0.203647	5891.171387
8063.397355	0.090275	0.203647	5971.245117
8063.398288	0.090190	0.203647	6055.392578
8063.399202	0.090165	0.203647	6137.803223
8063.400107	0.090154	0.203647	6219.392578
8063.401002	0.090242	0.203647	6300.158691
8063.401947	0.090322	0.203647	6385.513184
8064.404432	1.073870	0.240320	472.502625
8064.405411	1.539155	0.240320	1979.335693
8064.406332	1.524353	0.240320	3383.264893
8064.407266	1.483561	0.240320	4768.910645
8064.408167	0.883103	0.240320	5564.586426
8064.409130	0.097727	0.240320	5658.697754
8064.410026	0.090128	0.240320	5739.452637
8064.410947	0.090187	0.240320	5822.514648
8064.411838	0.090179	0.240320	5902.864746
8064.412770	0.090201	0.240320	5986.932617
8064.413694	0.090106	0.240320	6070.190918
8064.414594	0.090146	0.240320	6151.322754
8064.415537	0.090165	0.240320	6236.348145
8064.416446	0.090231	0.240320	6318.367676
8064.417371	0.090146	0.240320	6401.752930
8065.429996	1.101211	0.224070	516.467957
8065.430924	1.542404	0.224070	1947.818359
8065.431827	1.527048	0.224070	3326.743164
8065.432754	1.486765	0.224070	4704.974609
8065.433712	0.867828	0.224070	5536.354004
8065.434635	0.099243	0.224070	5627.955566
8065.435524	0.090084	0.224070	5708.040527
8065.436474	0.090157	0.224070	5793.689941
8065.437408	0.090275	0.224070	5878.006348
8065.438304	0.090190	0.224070	5958.816895
8065.439226	0.090238	0.224070	6042.016602
8065.440157	0.090245	0.224070	6126.035156
8065.441096	0.090179	0.224070	6210.713867
8065.441997	0.090260	0.224070	6292.038086
8065.442917	0.090201	0.224070	6375.023437
8066.432462	1.074719	0.252869	475.025879
8066.433405	1.540975	0.252869	1928.165649
8066.434364	1.524456	0.252869	3390.118652
8066.435292	1.483916	0.252869	4767.192871
8066.436198	0.869095	0.252869	5554.593262
8066.437155	0.098434	0.252869	5648.794434
8066.438092	0.090139	0.252869	5733.254883
8066.438987	0.090223	0.252869	5814.004883
8066.439903	0.090143	0.252869	5896.575684
8066.440844	0.090183	0.252869	5981.437988
8066.441760	0.090179	0.252869	6064.042480
8066.442647	0.090223	0.252869	6144.070801
8066.443595	0.090092	0.252869	6229.477539
8066.444529	0.090194	0.252869	6313.718750
8066.445423	0.090150	0.252869	6394.312988
8067.470340	1.096703	0.219841	546.158081
8067.471257	1.542938	0.219841	1961.032471
8067.472181	1.525020	0.219841	3370.150391
8067.473081	1.485802	0.219841	4707.372070
8067.474050	0.853685	0.219841	5534.593262
8067.474945	0.100020	0.219841	5624.110840
8067.475849	0.090125	0.219841	5705.583496
8067.476741	0.090176	0.219841	5786.020508
8067.477675	0.090183	0.219841	5870.251465
8067.478585	0.090183	0.219841	5952.317871
8067.479485	0.090212	0.219841	6033.508789
8067.480374	0.090172	0.219841	6113.671875
8067.481323	0.090234	0.219841	6199.304199
8067.482219	0.090209	0.219841	6280.131348
8067.483108	0.090220	0.219841	6360.336914
8068.467146	1.078901	0.241722	472.558807
8068.468094	1.542180	0.241722	1934.545654
8068.469009	1.526997	0.241722	3331.748047
8068.469906	1.487988	0.241722	4666.473633
8068.470860	0.927184	0.241722	5551.006836
8068.471765	0.104447	0.241722	5645.531250
8068.472664	0.090106	0.241722	5726.536621
8068.473552	0.090157	0.241722	5806.596680
8068.474498	0.090289	0.241722	5892.010254
8068.475405	0.090146	0.241722	5973.772949
8068.476303	0.090154	0.241722	6054.730957
8068.477194	0.090114	0.241722	6135.021973
8068.478120	0.090256	0.241722	6218.599121
8068.479028	0.090242	0.241722	6300.538574
8068.479920	0.090106	0.241722	6380.913086
8069.508576	1.094930	0.202172	496.003479
8069.509486	1.540770	0.202172	1898.104248
8069.510427	1.526342	0.202172	3334.391602
8069.511332	1.486388	0.202172	4679.572754
8069.512287	0.888512	0.202172	5528.101562
8069.513213	0.100437	0.202172	5621.106445
8069.514104	0.090125	0.202172	5701.407227
8069.515040	0.090231	0.202172	5785.863281
8069.515958	0.090146	0.202172	5868.617676
8069.516880	0.090260	0.202172	5951.837402
8069.517769	0.090238	0.202172	6032.059082
8069.518717	0.090198	0.202172	6117.566406
8069.519629	0.090172	0.202172	6199.803223
8069.520524	0.090198	0.202172	6280.530273
8069.521450	0.090179	0.202172	6364.036621
8070.509026	1.096080	0.211687	497.620453
8070.509964	1.541587	0.211687	1943.629028
8070.510862	1.527056	0.211687	3314.924805
8070.511807	1.485373	0.211687	4718.602539
8070.512740	0.877504	0.211687	5537.313477
8070.513662	0.100214	0.211687	5629.710449
8070.514551	0.090088	0.211687	5709.798828
8070.515507	0.090190	0.211687	5796.020996
8070.516428	0.090165	0.211687	5879.062988
8070.517318	0.090117	0.211687	5959.267090
8070.518251	0.090139	0.211687	6043.366699
8070.519171	0.090081	0.211687	6126.240723
8070.520085	0.090135	0.211687	6208.624512
8070.520975	0.090216	0.211687	6288.916992
8070.521892	0.090205	0.211687	6371.635254
8071.540705	1.084512	0.212203	484.776764
8071.541600	1.539770	0.212203	1862.871338
8071.542571	1.526433	0.212203	3345.037842
8071.543504	1.485472	0.212203	4730.983398
8071.544404	0.920929	0.212203	5559.819336
8071.545331	0.104784	0.212203	5656.954102
8071.546246	0.090015	0.212203	5739.317383
8071.547184	0.090183	0.212203	5823.909180
8071.548088	0.090168	0.212203	5905.421387
8071.549006	0.090081	0.212203	5988.115234
8071.549947	0.090179	0.212203	6072.974121
8071.550863	0.090183	0.212203	6155.582031
8071.551750	0.090168	0.212203	6235.561523
8071.552709	0.090201	0.212203	6322.064453
8071.553645	0.090179	0.212203	6406.472656
8072.550866	1.075170	0.209141	477.375336
8072.551759	1.539840	0.209141	1852.452637
8072.552734	1.526660	0.209141	3340.946289
8072.553670	1.486007	0.209141	4731.848633
8072.554591	0.891101	0.209141	5552.552734
8072.555490	0.102700	0.209141	5644.880371
8072.556433	0.090092	0.209141	5729.836914
8072.557368	0.090245	0.209141	5814.216309
8072.558267	0.090242	0.209141	5895.343750
8072.559185	0.090220	0.209141	5978.165527
8072.560126	0.090121	0.209141	6062.969238
8072.561042	0.090190	0.209141	6145.583496
8072.561935	0.090150	0.209141	6226.087402
8072.562884	0.090117	0.209141	6311.608398
8072.563818	0.090179	0.209141	6395.835937
8073.572807	1.076038	0.216751	471.304443
8073.573789	1.543583	0.216751	1987.102783
8073.574710	1.525151	0.216751	3391.767090
8073.575614	1.485590	0.216751	4734.740234
8073.576575	0.852261	0.216751	5553.762695
8073.577476	0.099679	0.216751	5643.573242
8073.578379	0.090103	0.216751	5724.936035
8073.579268	0.090205	0.216751	5805.128418
8073.580224	0.090231	0.216751	5891.389160
8073.581126	0.090212	0.216751	5972.760742
8073.582020	0.090135	0.216751	6053.341797
8073.582932	0.090194	0.216751	6135.598633
8073.583865	0.090234	0.216751	6219.787109
8073.584777	0.090216	0.216751	6302.063965
8073.585675	0.090264	0.216751	6383.120605
8074.587610	1.086973	0.224509	488.050690
8074.588514	1.540437	0.224509	1880.605713
8074.589409	1.528524	0.224509	3248.634766
8074.590361	1.488212	0.224509	4665.412109
8074.591274	0.973982	0.224509	5554.657715
8074.592166	0.109841	0.224509	5652.636230
8074.593110	0.090099	0.224509	5737.689453
8074.594015	0.090205	0.224509	5819.325195
8074.594917	0.090194	0.224509	5900.680176
8074.595806	0.090183	0.224509	5980.853027
8074.596742	0.090172	0.224509	6065.253906
8074.597641	0.090187	0.224509	6146.332031
8074.598540	0.090121	0.224509	6227.350586
8074.599430	0.090125	0.224509	6307.561523
8074.600371	0.090157	0.224509	6392.399902
8075.603407	1.082377	0.230757	483.822388
8075.604368	1.542275	0.230757	1965.949097
8075.605281	1.525602	0.230757	3358.823486
8075.606178	1.486490	0.230757	4692.205078
8075.607136	0.898685	0.230757	5553.145508
8075.608045	0.101213	0.230757	5645.148437
8075.608967	0.090070	0.230757	5728.192383
8075.609857	0.090212	0.230757	5808.481445
8075.610803	0.090172	0.230757	5893.784180
8075.611709	0.090150	0.230757	5975.460449
8075.612629	0.090179	0.230757	6058.425781
8075.613517	0.090187	0.230757	6138.511719
8075.614464	0.090238	0.230757	6223.967285
8075.615367	0.090165	0.230757	6305.386230
8075.616257	0.090227	0.230757	6385.688477
8076.623312	1.071691	0.231378	467.257141
8076.624279	1.540474	0.231378	1956.895020
8076.625208	1.525518	0.231378	3374.100830
8076.626129	1.485604	0.231378	4742.342285
8076.627030	0.911558	0.231378	5563.655762
8076.627981	0.100587	0.231378	5659.313965
8076.628898	0.090081	0.231378	5741.917969
8076.629798	0.090150	0.231378	5823.053223
8076.630705	0.090168	0.231378	5904.835937
8076.631640	0.090146	0.231378	5989.123047
8076.632555	0.090135	0.231378	6071.597168
8076.633476	0.090179	0.231378	6154.652344
8076.634366	0.090179	0.231378	6234.912109
8076.635310	0.090168	0.231378	6320.031250
8076.636255	0.090146	0.231378	6405.219727
8077.638128	1.112450	0.231406	531.751038
8077.639063	1.542623	0.231406	1974.103760
8077.639994	1.524686	0.231406	3393.586670
8077.640894	1.485546	0.231406	4730.577637
8077.641822	0.888062	0.231406	5554.698730
8077.642773	0.099741	0.231406	5649.552734
8077.643693	0.090146	0.231406	5732.487305
8077.644583	0.090128	0.231406	5812.701172
8077.645530	0.090194	0.231406	5898.114746
8077.646462	0.090198	0.231406	5982.179199
8077.647352	0.090165	0.231406	6062.425781
8077.648267	0.090198	0.231406	6144.956543
8077.649200	0.090201	0.231406	6229.114258
8077.650118	0.090194	0.231406	6311.912598
8077.651021	0.090165	0.231406	6393.331543
8078.660057	1.097369	0.234093	494.913605
8078.660989	1.541741	0.234093	1931.815918
8078.661895	1.526814	0.234093	3315.109375
8078.662841	1.485747	0.234093	4720.625977
8078.663786	0.882319	0.234093	5554.417969
8078.664677	0.102253	0.234093	5645.525879
8078.665595	0.090128	0.234093	5728.263672
8078.666526	0.090161	0.234093	5812.203613
8078.667450	0.090106	0.234093	5895.461914
8078.668348	0.090154	0.234093	5976.419922
8078.669301	0.090201	0.234093	6062.381836
8078.670236	0.090146	0.234093	6146.668945
8078.671136	0.090267	0.234093	6227.909668
8078.672054	0.090168	0.234093	6310.684082
8078.672995	0.090187	0.234093	6395.549805
8079.672827	1.129215	0.226652	542.023254
8079.673739	1.542308	0.226652	1948.608398
8079.674649	1.526356	0.226652	3337.592529
8079.675544	1.486512	0.226652	4668.020996
8079.676515	0.896217	0.226652	5538.247559
8079.677420	0.102678	0.226652	5631.171387
8079.678320	0.090092	0.226652	5712.253906
8079.679256	0.090267	0.226652	5796.744141
8079.680158	0.090234	0.226652	5878.135742
8079.681057	0.090139	0.226652	5959.170898
8079.681943	0.090242	0.226652	6039.125000
8079.682881	0.090256	0.226652	6123.785645
8079.683788	0.090205	0.226652	6205.601562
8079.684692	0.090190	0.226652	6287.133789
8079.685583	0.090157	0.226652	6367.463867
8080.695760	1.082164	0.226044	481.563110
8080.696741	1.542902	0.226044	1995.149536
8080.697651	1.525027	0.226044	3382.924072
8080.698550	1.485721	0.226044	4718.587891
8080.699512	0.868601	0.226044	5554.182129
8080.700413	0.100334	0.226044	5644.583496
8080.701313	0.090073	0.226044	5725.649414
8080.702210	0.090154	0.226044	5806.517578
8080.703133	0.090231	0.226044	5889.800293
8080.704044	0.090110	0.226044	5971.890625
8080.704955	0.090168	0.226044	6054.034180
8080.705847	0.090121	0.226044	6134.421875
8080.706784	0.090216	0.226044	6218.954102
8080.707699	0.090183	0.226044	6301.471680
8080.708612	0.090220	0.226044	6383.842285
8081.709510	1.072419	0.225569	470.792114
8081.710466	1.541752	0.225569	1944.706787
8081.711387	1.525961	0.225569	3350.116699
8081.712284	1.487007	0.225569	4683.961914
8081.713242	0.904958	0.225569	5550.912109
8081.714159	0.101418	0.225569	5643.912598
8081.715079	0.089996	0.225569	5726.708984
8081.715968	0.090150	0.225569	5806.852539
8081.716917	0.090223	0.225569	5892.474609
8081.717813	0.090179	0.225569	5973.275391
8081.718733	0.090132	0.225569	6056.196777
8081.719621	0.090154	0.225569	6136.253418
8081.720565	0.090212	0.225569	6221.414062
8081.721477	0.090154	0.225569	6303.634277
8081.722386	0.090106	0.225569	6385.541016
8082.729431	1.071885	0.233613	469.485535
8082.730362	1.539133	0.233613	1902.418457
8082.731300	1.526382	0.233613	3334.164551
8082.732230	1.485707	0.233613	4715.872070
8082.733131	0.934962	0.233613	5558.272949
8082.734063	0.103400	0.233613	5654.641602
8082.734986	0.089974	0.233613	5737.687988
8082.735897	0.090161	0.233613	5819.824707
8082.736793	0.090179	0.233613	5900.625488
8082.737742	0.090062	0.233613	5986.094727
8082.738690	0.090176	0.233613	6071.581543
8082.739589	0.090216	0.233613	6152.685547
8082.740518	0.090103	0.233613	6236.390625
8082.741451	0.090146	0.233613	6320.497070
8082.742385	0.090168	0.233613	6404.714355
8083.746257	1.065710	0.224763	468.912598
8083.747157	1.539617	0.224763	1854.567627
8083.748112	1.527063	0.224763	3312.912842
8083.749056	1.486179	0.224763	4715.866211
8083.749965	0.924276	0.224763	5556.033203
8083.750886	0.104996	0.224763	5652.734863
8083.751817	0.090011	0.224763	5736.535156
8083.752750	0.090088	0.224763	5820.586914
8083.753651	0.090128	0.224763	5901.792480
8083.754572	0.090176	0.224763	5984.844238
8083.755499	0.090117	0.224763	6068.382812
8083.756407	0.090154	0.224763	6150.242676
8083.757305	0.090117	0.224763	6231.167969
8083.758232	0.090187	0.224763	6314.770996
8083.759171	0.090132	0.224763	6399.404785
8084.762108	1.105865	0.228445	534.133057
8084.763048	1.542883	0.228445	1984.443359
8084.763943	1.525675	0.228445	3349.922363
8084.764875	1.485568	0.228445	4734.471680
8084.765828	0.850177	0.228445	5544.690430
8084.766745	0.098958	0.228445	5635.434570
8084.767631	0.090106	0.228445	5715.268555
8084.768578	0.090157	0.228445	5800.647461
8084.769504	0.090154	0.228445	5884.129883
8084.770414	0.090190	0.228445	5966.203125
8084.771325	0.090179	0.228445	6048.356445
8084.772256	0.090143	0.228445	6132.279297
8084.773191	0.090187	0.228445	6216.604004
8084.774088	0.090157	0.228445	6297.475098
8084.775013	0.090121	0.228445	6380.836914
8085.786074	1.085299	0.213174	484.043365
8085.787010	1.541389	0.213174	1926.783569
8085.787918	1.526920	0.213174	3313.227051
8085.788863	1.486080	0.213174	4717.572754
8085.789794	0.899059	0.213174	5554.596680
8085.790696	0.102480	0.213174	5647.034180
8085.791587	0.090121	0.213174	5727.332031
8085.792520	0.090231	0.213174	5811.517090
8085.793420	0.090029	0.213174	5892.543457
8085.794319	0.090183	0.213174	5973.618164
8085.795206	0.090095	0.213174	6053.532715
8085.796132	0.090271	0.213174	6137.123535
8085.797042	0.090128	0.213174	6219.140137
8085.797931	0.090198	0.213174	6299.326172
8085.798845	0.090157	0.213174	6381.729980
8086.795214	1.068362	0.227124	466.874084
8086.796159	1.540364	0.227124	1922.517822
8086.797073	1.527129	0.227124	3318.313477
8086.798001	1.487135	0.227124	4698.375000
8086.798912	0.938701	0.227124	5553.531738
8086.799874	0.100345	0.227124	5650.063965
8086.800776	0.090018	0.227124	5731.260254
8086.801701	0.090092	0.227124	5814.594727
8086.802590	0.090161	0.227124	5894.748047
8086.803550	0.090088	0.227124	5981.232422
8086.804452	0.090212	0.227124	6062.604004
8086.805363	0.090201	0.227124	6144.777344
8086.806275	0.090157	0.227124	6227.000977
8086.807211	0.090238	0.227124	6311.463867
8086.808133	0.090176	0.227124	6394.605957
8087.823870	1.104770	0.214157	541.337524
8087.824804	1.543037	0.214157	1982.534302
8087.825739	1.524251	0.214157	3407.708496
8087.826643	1.484410	0.214157	4749.615234
8087.827604	0.815933	0.214157	5533.726562
8087.828546	0.096874	0.214157	5624.981445
8087.829448	0.090172	0.214157	5706.316895
8087.830363	0.090238	0.214157	5788.884766
8087.831300	0.090095	0.214157	5873.304199
8087.832213	0.090110	0.214157	5955.574707
8087.833099	0.090084	0.214157	6035.389160
8087.834041	0.090106	0.214157	6120.269043
8087.834969	0.090077	0.214157	6203.860352
8087.835875	0.090121	0.214157	6285.509766
8087.836779	0.090132	0.214157	6366.988770
8088.828409	1.097589	0.225476	516.964478
8088.829318	1.541221	0.225476	1917.934082
8088.830209	1.526986	0.225476	3278.478516
8088.831170	1.486062	0.225476	4706.583984
8088.832112	0.886014	0.225476	5541.209473
8088.833034	0.100294	0.225476	5633.680664
8088.833927	0.090018	0.225476	5714.066895
8088.834872	0.090117	0.225476	5799.227539
8088.835809	0.090179	0.225476	5883.725586
8088.836711	0.090176	0.225476	5965.063965
8088.837636	0.090110	0.225476	6048.415527
8088.838577	0.090146	0.225476	6133.243164
8088.839493	0.090150	0.225476	6215.820801
8088.840383	0.090095	0.225476	6296.005371
8088.841328	0.090066	0.225476	6381.117676
8089.863638	1.074873	0.215949	483.692841
8089.864533	1.540089	0.215949	1862.072632
8089.865476	1.527096	0.215949	3302.124023
8089.866398	1.487307	0.215949	4673.420898
8089.867310	0.964032	0.215949	5552.618164
8089.868198	0.109263	0.215949	5649.643555
8089.869157	0.090201	0.215949	5736.146484
8089.870051	0.090150	0.215949	5816.740723
8089.870940	0.090183	0.215949	5896.913574
8089.871872	0.090260	0.215949	5981.036133
8089.872780	0.090176	0.215949	6062.915527
8089.873674	0.090194	0.215949	6143.548828
8089.874558	0.090260	0.215949	6223.338867
8089.875486	0.090333	0.215949	6307.167969
8089.876404	0.090190	0.215949	6389.962891
8090.863081	1.095480	0.230419	503.920685
8090.863989	1.541096	0.230419	1903.235962
8090.864885	1.528000	0.230419	3272.324219
8090.865840	1.487131	0.230419	4692.534668
8090.866748	0.940444	0.230419	5546.458008
8090.867673	0.103953	0.230419	5642.614258
8090.868570	0.090106	0.230419	5723.439453
8090.869530	0.090077	0.230419	5809.913086
8090.870432	0.090172	0.230419	5891.248535
8090.871323	0.090168	0.230419	5971.588867
8090.872253	0.090187	0.230419	6055.462402
8090.873165	0.090135	0.230419	6137.666016
8090.874063	0.090198	0.230419	6218.663574
8090.874959	0.090179	0.230419	6299.464355
8090.875904	0.090183	0.230419	6384.687500
8091.901928	1.106884	0.205621	514.700867
8091.902832	1.541422	0.205621	1908.146484
8091.903768	1.526323	0.205621	3336.785156
8091.904718	1.485260	0.205621	4747.782227
8091.905640	0.887699	0.205621	5566.240723
8091.906527	0.103041	0.205621	5657.637695
8091.907476	0.090154	0.205621	5743.193848
8091.908413	0.090132	0.205621	5827.647461
8091.909309	0.090132	0.205621	5908.405762
8091.910225	0.090070	0.205621	5990.909668
8091.911155	0.090157	0.205621	6074.756348
8091.912070	0.090168	0.205621	6157.260254
8091.912971	0.090198	0.205621	6238.528320
8091.913929	0.090183	0.205621	6324.923828
8091.914864	0.090095	0.205621	6409.163086
8092.900334	1.090858	0.240885	519.248535
8092.901273	1.542740	0.240885	1967.881836
8092.902203	1.525459	0.240885	3386.558594
8092.903107	1.485612	0.240885	4729.551270
8092.904068	0.838835	0.240885	5535.672363
8092.905004	0.098064	0.240885	5627.460449
8092.905905	0.090110	0.240885	5708.649414
8092.906826	0.090256	0.240885	5791.775391
8092.907759	0.090216	0.240885	5875.946777
8092.908691	0.090238	0.240885	5960.048828
8092.909598	0.090172	0.240885	6041.834961
8092.910499	0.090150	0.240885	6123.060059
8092.911424	0.090114	0.240885	6206.415039
8092.912357	0.090168	0.240885	6290.541992
8092.913257	0.090220	0.240885	6371.739746
8093.933026	1.079890	0.206495	491.350006
8093.933924	1.540349	0.206495	1874.583496
8093.934876	1.527012	0.206495	3328.298828
8093.935783	1.486963	0.206495	4676.974121
8093.936690	0.962384	0.206495	5549.856445
8093.937578	0.109087	0.206495	5646.725586
8093.938515	0.090194	0.206495	5731.237305
8093.939427	0.090139	0.206495	5813.444336
8093.940323	0.090121	0.206495	5894.192383
8093.941212	0.090099	0.206495	5974.290039
8093.942154	0.090165	0.206495	6059.225098
8093.943054	0.090146	0.206495	6140.356934
8093.943946	0.090154	0.206495	6220.773926
8093.944884	0.090216	0.206495	6305.396484
8093.945802	0.090179	0.206495	6388.181152
8094.941122	1.062169	0.237013	460.981445
8094.942072	1.539935	0.237013	1923.920044
8094.942986	1.525382	0.237013	3318.119141
8094.943902	1.486879	0.237013	4680.100098
8094.944810	0.952452	0.237013	5544.926758
8094.945769	0.101895	0.237013	5642.643555
8094.946677	0.090125	0.237013	5724.476562
8094.947570	0.090256	0.237013	5805.075684
8094.948502	0.090194	0.237013	5889.136719
8094.949411	0.090125	0.237013	5971.060059
8094.950308	0.090245	0.237013	6052.010254
8094.951197	0.090099	0.237013	6132.108398
8094.952104	0.090121	0.237013	6213.848145
8094.953031	0.090084	0.237013	6297.356445
8094.953949	0.090135	0.237013	6380.101074
8095.962617	1.080095	0.209085	522.766052
8095.963559	1.542938	0.209085	1976.213867
8095.964487	1.524415	0.209085	3390.871094
8095.965393	1.484934	0.209085	4736.221680
8095.966334	0.844918	0.209085	5531.289551
8095.967278	0.097313	0.209085	5623.153320
8095.968194	0.089996	0.209085	5705.589844
8095.969083	0.090117	0.209085	5785.704102
8095.970035	0.090084	0.209085	5871.464355
8095.970973	0.090121	0.209085	5955.997559
8095.971869	0.090245	0.209085	6036.857422
8095.972792	0.090132	0.209085	6120.049316
8095.973726	0.090220	0.209085	6204.314453
8095.974655	0.090128	0.209085	6288.043457
8095.975543	0.090242	0.209085	6368.178223
8096.983545	1.125106	0.229992	545.676514
8096.984483	1.543213	0.229992	1993.210205
8096.985411	1.524880	0.229992	3408.299316
8096.986310	1.485659	0.229992	4743.907227
8096.987286	0.822605	0.229992	5546.769531
8096.988187	0.098778	0.229992	5635.768555
8096.989093	0.090055	0.229992	5717.358398
8096.989987	0.090146	0.229992	5797.949219
8096.990913	0.090245	0.229992	5881.516602
8096.991817	0.090198	0.229992	5963.055176
8096.992719	0.090146	0.229992	6044.367187
8096.993608	0.090117	0.229992	6124.481445
8096.994548	0.090205	0.229992	6209.274414
8096.995451	0.090179	0.229992	6290.706543
8096.996358	0.090095	0.229992	6372.422852
8097.992653	1.069600	0.203816	471.693451
8097.993548	1.539324	0.203816	1849.388306
8097.994529	1.525979	0.203816	3346.373779
8097.995439	1.486359	0.203816	4698.959961
8097.996343	0.949050	0.203816	5556.901367
8097.997289	0.106963	0.203816	5658.088379
8097.998193	0.090125	0.203816	5739.561035
8097.999092	0.090187	0.203816	5820.639160
8097.999992	0.090249	0.203816	5901.863281
8098.000920	0.090242	0.203816	5985.607422
8098.001832	0.090249	0.203816	6067.914551
8098.002733	0.090172	0.203816	6149.159668
8098.003620	0.090198	0.203816	6229.165039
8098.004569	0.090315	0.203816	6314.874023
8098.005470	0.090201	0.203816	6396.145508
8099.024329	1.070347	0.233887	468.811859
8099.025308	1.542499	0.233887	1978.918091
8099.026222	1.525192	0.233887	3372.943359
8099.027118	1.486146	0.233887	4704.530273
8099.028061	0.904922	0.233887	5557.871582
8099.028975	0.102034	0.233887	5651.130371
8099.029875	0.090132	0.233887	5732.249023
8099.030762	0.090183	0.233887	5812.241211
8099.031712	0.090168	0.233887	5897.901367
8099.032608	0.090154	0.233887	5978.679199
8099.033526	0.090231	0.233887	6061.511230
8099.034427	0.090198	0.233887	6142.779297
8099.035377	0.090227	0.233887	6228.495117
8099.036279	0.090220	0.233887	6309.873535
8099.037172	0.090227	0.233887	6390.446289
8100.026840	1.073829	0.211325	475.706421
8100.027734	1.539078	0.211325	1851.642456
8100.028693	1.526440	0.211325	3315.498779
8100.029603	1.486608	0.211325	4668.311523
8100.030539	0.927261	0.211325	5536.227539
8100.031430	0.105707	0.211325	5630.412109
8100.032377	0.089956	0.211325	5715.600586
8100.033308	0.090135	0.211325	5799.516602
8100.034198	0.090146	0.211325	5879.747070
8100.035138	0.090121	0.211325	5964.460449
8100.036066	0.090125	0.211325	6048.096191
8100.036983	0.090106	0.211325	6130.723633
8100.037870	0.090146	0.211325	6210.683594
8100.038819	0.090165	0.211325	6296.250000
8100.039731	0.090157	0.211325	6378.473633
8101.061073	1.075913	0.231148	477.705414
8101.061971	1.539488	0.231148	1860.166016
8101.062954	1.525767	0.231148	3359.994629
8101.063897	1.484670	0.231148	4760.039062
8101.064811	0.873497	0.231148	5558.415527
8101.065736	0.101301	0.231148	5652.119141
8101.066672	0.090103	0.231148	5736.455078
8101.067587	0.090275	0.231148	5819.056152
8101.068474	0.090168	0.231148	5899.035645
8101.069420	0.090157	0.231148	5984.324707
8101.070339	0.090150	0.231148	6067.172852
8101.071246	0.090194	0.231148	6148.979004
8101.072138	0.090092	0.231148	6229.340820
8101.073090	0.090132	0.231148	6315.146484
8101.074026	0.090157	0.231148	6399.533691
8102.064588	1.071189	0.217464	474.536743
8102.065482	1.539291	0.217464	1850.662598
8102.066460	1.525543	0.217464	3342.643799
8102.067407	1.485092	0.217464	4749.025391
8102.068315	0.890823	0.217464	5557.892578
8102.069240	0.101785	0.217464	5652.043457
8102.070185	0.090114	0.217464	5737.200684
8102.071103	0.090176	0.217464	5819.981934
8102.071990	0.090179	0.217464	5899.971191
8102.072939	0.090150	0.217464	5985.523437
8102.073871	0.090157	0.217464	6069.550293
8102.074769	0.090165	0.217464	6150.518066
8102.075695	0.090205	0.217464	6234.047852
8102.076620	0.090157	0.217464	6317.443359
8102.077545	0.090081	0.217464	6400.768066
8103.092168	1.066073	0.229460	464.807800
8103.093122	1.540668	0.229460	1934.604736
8103.094074	1.524877	0.229460	3386.287354
8103.094990	1.484828	0.229460	4746.389648
8103.095896	0.887750	0.229460	5550.691406
8103.096838	0.099957	0.229460	5644.851074
8103.097770	0.090106	0.229460	5728.830078
8103.098669	0.090183	0.229460	5809.904785
8103.099584	0.090238	0.229460	5892.472656
8103.100517	0.090099	0.229460	5976.534668
8103.101458	0.090179	0.229460	6061.393555
8103.102353	0.090146	0.229460	6142.074707
8103.103290	0.090099	0.229460	6226.497559
8103.104185	0.090242	0.229460	6307.263672
8103.105096	0.090121	0.229460	6389.363770
8104.105427	1.066842	0.221033	472.611053
8104.106320	1.539016	0.221033	1846.952515
8104.107270	1.526807	0.221033	3297.418945
8104.108186	1.487318	0.221033	4659.802246
8104.109094	0.976868	0.221033	5546.797852
8104.110031	0.108739	0.221033	5648.686523
8104.110934	0.090135	0.221033	5730.079102
8104.111832	0.090132	0.221033	5811.017578
8104.112721	0.090143	0.221033	5891.154785
8104.113664	0.090234	0.221033	5976.245605
8104.114567	0.090143	0.221033	6057.644531
8104.115460	0.090165	0.221033	6138.161621
8104.116345	0.090172	0.221033	6217.963867
8104.117277	0.090238	0.221033	6302.065918
8104.118183	0.090212	0.221033	6383.798340
8105.122763	1.064736	0.224848	467.419220
8105.123728	1.539445	0.224848	1952.983154
8105.124639	1.526063	0.224848	3343.226562
8105.125552	1.486600	0.224848	4700.492676
8105.126458	0.947999	0.224848	5559.379883
8105.127396	0.102363	0.224848	5655.396484
8105.128307	0.090103	0.224848	5737.479980
8105.129203	0.090154	0.224848	5818.257812
8105.130092	0.090143	0.224848	5898.395020
8105.131029	0.090231	0.224848	5982.941406
8105.131929	0.090106	0.224848	6064.037109
8105.132819	0.090187	0.224848	6144.303223
8105.133758	0.090260	0.224848	6229.057617
8105.134671	0.090154	0.224848	6311.368164
8105.135575	0.090161	0.224848	6392.874023
8106.146766	1.068541	0.211635	469.089630
8106.147665	1.539207	0.211635	1852.836304
8106.148641	1.525675	0.211635	3341.895020
8106.149584	1.484927	0.211635	4742.180664
8106.150485	0.907328	0.211635	5559.683105
8106.151442	0.102063	0.211635	5657.357422
8106.152356	0.090026	0.211635	5739.640625
8106.153273	0.090135	0.211635	5822.294922
8106.154161	0.090172	0.211635	5902.367676
8106.155104	0.090117	0.211635	5987.348145
8106.156029	0.090212	0.211635	6070.794434
8106.156931	0.090194	0.211635	6152.149414
8106.157863	0.090190	0.211635	6236.207031
8106.158780	0.090168	0.211635	6318.891602
8106.159698	0.090029	0.211635	6401.538574
8107.155448	1.114241	0.211123	539.292480
8107.156370	1.542418	0.211123	1961.402100
8107.157300	1.524921	0.211123	3379.578369
8107.158205	1.485264	0.211123	4723.742187
8107.159172	0.837283	0.211123	5533.394531
8107.160118	0.097599	0.211123	5625.723145
8107.161017	0.090084	0.211123	5706.708984
8107.161941	0.090176	0.211123	5790.031250
8107.162878	0.090084	0.211123	5874.439941
8107.163795	0.090168	0.211123	5957.124512
8107.164684	0.090117	0.211123	6037.238770
8107.165629	0.090110	0.211123	6122.392578
8107.166554	0.090088	0.211123	6205.723633
8107.167465	0.090088	0.211123	6287.793945
8107.168354	0.090139	0.211123	6367.927734
8108.185550	1.079755	0.206869	470.773010
8108.186538	1.542891	0.206869	1995.148926
8108.187465	1.524488	0.206869	3408.349609
8108.188365	1.485238	0.206869	4745.063965
8108.189305	0.858003	0.206869	5551.586914
8108.190256	0.098445	0.206869	5645.208008
8108.191173	0.090033	0.206869	5727.768066
8108.192061	0.090106	0.206869	5807.782227
8108.193012	0.090157	0.206869	5893.521973
8108.193939	0.090099	0.206869	5977.043457
8108.194830	0.090150	0.206869	6057.367187
8108.195754	0.090139	0.206869	6140.655762
8108.196691	0.090198	0.206869	6225.170898
8108.197623	0.090128	0.206869	6309.170410
8108.198520	0.090114	0.206869	6390.002441
8109.188052	1.066040	0.215635	475.453857
8109.188947	1.539305	0.215635	1853.132202
8109.189914	1.526221	0.215635	3328.987549
8109.190835	1.486088	0.215635	4697.674316
8109.191753	0.929088	0.215635	5550.577148
8109.192640	0.105773	0.215635	5644.397461
8109.193601	0.090183	0.215635	5731.063477
8109.194510	0.090168	0.215635	5813.026367
8109.195408	0.090271	0.215635	5894.089844
8109.196348	0.090220	0.215635	5978.896484
8109.197253	0.090231	0.215635	6060.555176
8109.198154	0.090176	0.215635	6141.803711
8109.199042	0.090201	0.215635	6221.902344
8109.199979	0.090194	0.215635	6306.414062
8109.200884	0.090132	0.215635	6387.983398
8110.224342	1.079993	0.205778	481.676727
8110.225242	1.540005	0.205778	1867.681152
8110.226137	1.528275	0.205778	3235.487305
8110.227105	1.487128	0.205778	4675.026855
8110.228020	0.959319	0.205778	5552.803711
8110.228910	0.107908	0.205778	5648.841797
8110.229840	0.090026	0.205778	5732.565430
8110.230746	0.090157	0.205778	5814.248047
8110.231642	0.090110	0.205778	5894.986328
8110.232536	0.090172	0.205778	5975.600098
8110.233463	0.090139	0.205778	6059.159180
8110.234378	0.090179	0.205778	6141.673340
8110.235279	0.090088	0.205778	6222.842773
8110.236170	0.090157	0.205778	6303.172852
8110.237120	0.090161	0.205778	6388.826172
8111.223246	1.080172	0.218560	478.516235
8111.224238	1.543385	0.218560	2009.554199
8111.225152	1.524782	0.218560	3403.204590
8111.226048	1.485377	0.218560	4734.102539
8111.227010	0.857922	0.218560	5559.423828
8111.227912	0.100408	0.218560	5649.991699
8111.228834	0.090095	0.218560	5733.059570
8111.229724	0.090168	0.218560	5813.309570
8111.230689	0.090190	0.218560	5900.343262
8111.231584	0.090179	0.218560	5981.053711
8111.232474	0.090234	0.218560	6061.362305
8111.233390	0.090220	0.218560	6144.003418
8111.234325	0.090154	0.218560	6228.297363
8111.235225	0.090172	0.218560	6309.452148
8111.236114	0.090150	0.218560	6389.595703
8112.260042	1.065278	0.209512	462.330780
8112.260980	1.540499	0.209512	1907.319214
8112.261908	1.526151	0.209512	3323.587402
8112.262837	1.486099	0.209512	4704.172852
8112.263737	0.948578	0.209512	5557.893066
8112.264662	0.105315	0.209512	5655.309570
8112.265596	0.090033	0.209512	5739.400391
8112.266515	0.090125	0.209512	5822.224609
8112.267405	0.090172	0.209512	5902.478027
8112.268350	0.090099	0.209512	5987.621582
8112.269291	0.090103	0.209512	6072.408203
8112.270182	0.090176	0.209512	6152.754883
8112.271105	0.090040	0.209512	6235.862305
8112.272041	0.090106	0.209512	6320.201660
8112.272961	0.090150	0.209512	6403.139648
8113.258968	1.096534	0.225952	496.730072
8113.259911	1.542429	0.225952	1951.240845
8113.260810	1.526766	0.225952	3323.803711
8113.261753	1.485498	0.225952	4724.628418
8113.262706	0.857314	0.225952	5541.648926
8113.263633	0.099163	0.225952	5633.572754
8113.264524	0.090157	0.225952	5713.902832
8113.265468	0.090216	0.225952	5799.066895
8113.266403	0.090132	0.225952	5883.340332
8113.267294	0.090201	0.225952	5963.709961
8113.268212	0.090150	0.225952	6046.467773
8113.269157	0.090223	0.225952	6131.729004
8113.270071	0.090220	0.225952	6214.189941
8113.270967	0.090264	0.225952	6295.066406
8113.271909	0.090238	0.225952	6380.070801
8114.297297	1.077136	0.200203	480.402771
8114.298198	1.540276	0.200203	1868.191406
8114.299151	1.527191	0.200203	3323.604492
8114.300062	1.487047	0.200203	4678.304199
8114.300972	0.965768	0.200203	5557.152832
8114.301862	0.109728	0.200203	5654.810547
8114.302806	0.090121	0.200203	5739.884766
8114.303707	0.090205	0.200203	5821.159668
8114.304610	0.090157	0.200203	5902.571777
8114.305514	0.090176	0.200203	5984.090820
8114.306447	0.090264	0.200203	6068.306641
8114.307361	0.090066	0.200203	6150.626953
8114.308258	0.090114	0.200203	6231.458984
8114.309194	0.090264	0.200203	6315.945801
8114.310092	0.090179	0.200203	6396.926758
8115.296221	1.083937	0.225452	481.267944
8115.297142	1.540177	0.225452	1899.770996
8115.298040	1.527832	0.225452	3271.764160
8115.299001	1.487270	0.225452	4701.031250
8115.299915	0.932871	0.225452	5553.675293
8115.300820	0.105278	0.225452	5648.952148
8115.301709	0.090015	0.225452	5728.975098
8115.302651	0.090194	0.225452	5813.937988
8115.303565	0.090106	0.225452	5896.294922
8115.304467	0.090194	0.225452	5977.649902
8115.305355	0.090168	0.225452	6057.719727
8115.306296	0.090234	0.225452	6142.630371
8115.307201	0.090117	0.225452	6224.186523
8115.308098	0.090190	0.225452	6305.087402
8115.308984	0.090161	0.225452	6384.970215
8116.335046	1.067930	0.185378	467.753235
8116.335999	1.539536	0.185378	1934.931152
8116.336925	1.526125	0.185378	3348.123291
8116.337835	1.486388	0.185378	4700.736328
8116.338736	0.953079	0.185378	5559.459961
8116.339662	0.107769	0.185378	5659.253418
8116.340573	0.090110	0.185378	5741.343750
8116.341468	0.090172	0.185378	5822.047852
8116.342356	0.090187	0.185378	5902.133789
8116.343290	0.090256	0.185378	5986.433105
8116.344200	0.090125	0.185378	6068.446289
8116.345114	0.090212	0.185378	6150.900391
8116.346004	0.090194	0.185378	6231.173340
8116.346946	0.090154	0.185378	6316.098145
8116.347849	0.090161	0.185378	6397.513672
8117.333008	1.106316	0.216239	560.902222
8117.333929	1.542971	0.216239	1981.978638
8117.334860	1.524653	0.216239	3401.430908
8117.335752	1.485546	0.216239	4726.537598
8117.336728	0.814347	0.216239	5521.340332
8117.337628	0.097965	0.216239	5609.508789
8117.338541	0.090117	0.216239	5691.785645
8117.339438	0.090234	0.216239	5772.726074
8117.340392	0.090110	0.216239	5858.690918
8117.341292	0.090154	0.216239	5939.829102
8117.342185	0.090154	0.216239	6020.336426
8117.343123	0.090165	0.216239	6104.911133
8117.344041	0.090114	0.216239	6187.635254
8117.344962	0.090029	0.216239	6270.552246
8117.345849	0.090117	0.216239	6350.486328
8118.371318	1.095242	0.175098	518.049377
8118.372225	1.541034	0.175098	1915.767090
8118.373120	1.527316	0.175098	3282.714844
8118.374075	1.485886	0.175098	4701.736328
8118.375033	0.859017	0.175098	5524.674805
8118.375953	0.099049	0.175098	5615.799805
8118.376852	0.090011	0.175098	5696.719727
8118.377800	0.090121	0.175098	5782.154297
8118.378736	0.090103	0.175098	5866.490234
8118.379635	0.090187	0.175098	5947.568359
8118.380558	0.090084	0.175098	6030.716309
8118.381502	0.090157	0.175098	6115.825195
8118.382419	0.090114	0.175098	6198.459473
8118.383307	0.090088	0.175098	6278.457520
8118.384246	0.090154	0.175098	6363.111816
8119.369671	1.063678	0.207889	463.763580
8119.370609	1.538972	0.207889	1907.319580
8119.371572	1.525452	0.207889	3376.329590
8119.372497	1.484985	0.207889	4749.940918
8119.373402	0.897436	0.207889	5562.121094
8119.374347	0.100521	0.207889	5657.113770
8119.375272	0.090004	0.207889	5740.367187
8119.376173	0.090125	0.207889	5821.569336
8119.377081	0.090143	0.207889	5903.418945
8119.378014	0.090150	0.207889	5987.528809
8119.378933	0.090117	0.207889	6070.346680
8119.379842	0.090135	0.207889	6152.279785
8119.380761	0.090139	0.207889	6235.117676
8119.381704	0.090135	0.207889	6320.115234
8119.382634	0.090110	0.207889	6403.917480
8120.407004	1.077220	0.174401	478.285889
8120.407901	1.539620	0.174401	1859.325439
8120.408870	1.526276	0.174401	3338.286621
8120.409783	1.486157	0.174401	4695.147949
8120.410689	0.943411	0.174401	5549.877930
8120.411604	0.106586	0.174401	5647.403809
8120.412542	0.090092	0.174401	5731.909668
8120.413453	0.090132	0.174401	5814.019531
8120.414353	0.090220	0.174401	5895.217285
8120.415272	0.090183	0.174401	5978.095703
8120.416172	0.090223	0.174401	6059.296875
8120.417071	0.090110	0.174401	6140.305664
8120.417959	0.090139	0.174401	6220.349121
8120.418907	0.090154	0.174401	6305.814941
8120.419812	0.090205	0.174401	6387.450684
8121.407945	1.074258	0.191046	469.450623
8121.408906	1.543052	0.191046	1952.323242
8121.409826	1.526129	0.191046	3356.362061
8121.410736	1.486454	0.191046	4709.035156
8121.411701	0.875878	0.191046	5554.257324
8121.412613	0.099628	0.191046	5645.117676
8121.413512	0.090066	0.191046	5726.086914
8121.414404	0.090201	0.191046	5806.546387
8121.415343	0.090293	0.191046	5891.331543
8121.416243	0.090150	0.191046	5972.466797
8121.417140	0.090150	0.191046	6053.331543
8121.418027	0.090110	0.191046	6133.258789
8121.418975	0.090297	0.191046	6218.859863
8121.419884	0.090150	0.191046	6300.806152
8121.420782	0.090128	0.191046	6381.741211
8122.442715	1.083970	0.179259	482.366516
8122.443619	1.540056	0.179259	1874.577148
8122.444517	1.528462	0.179259	3247.135986
8122.445474	1.487875	0.179259	4671.032227
8122.446397	0.950446	0.179259	5548.293457
8122.447300	0.106674	0.179259	5644.619629
8122.448195	0.090048	0.179259	5725.212402
8122.449141	0.090121	0.179259	5810.466797
8122.450044	0.090187	0.179259	5891.905273
8122.450934	0.090176	0.179259	5972.161621
8122.451845	0.090165	0.179259	6054.301758
8122.452769	0.090168	0.179259	6137.617187
8122.453673	0.090099	0.179259	6219.066406
8122.454568	0.090110	0.179259	6299.714844
8122.455516	0.090146	0.179259	6385.173828
8123.443669	1.080828	0.191940	485.291595
8123.444566	1.539316	0.191940	1866.058472
8123.445491	1.527510	0.191940	3279.004883
8123.446440	1.486245	0.191940	4689.451172
8123.447353	0.943748	0.191940	5551.092773
8123.448243	0.106967	0.191940	5646.292969
8123.449175	0.090059	0.191940	5730.227539
8123.450087	0.090117	0.191940	5812.414551
8123.451004	0.090161	0.191940	5895.092285
8123.451893	0.090161	0.191940	5975.245605
8123.452856	0.090066	0.191940	6061.979004
8123.453755	0.090157	0.191940	6143.030762
8123.454642	0.090190	0.191940	6223.029785
8123.455566	0.090172	0.191940	6306.348633
8123.456494	0.090077	0.191940	6389.939941
8124.476889	1.085365	0.186732	484.072815
8124.477789	1.540089	0.186732	1870.153076
8124.478687	1.528586	0.186732	3242.823730
8124.479634	1.487710	0.186732	4651.685059
8124.480552	0.966544	0.186732	5538.972656
8124.481483	0.105359	0.186732	5637.062012
8124.482372	0.090040	0.186732	5717.107910
8124.483332	0.090077	0.186732	5803.581543
8124.484255	0.090146	0.186732	5886.786621
8124.485147	0.090201	0.186732	5967.246094
8124.486085	0.090168	0.186732	6051.824219
8124.486983	0.090135	0.186732	6132.766113
8124.487903	0.090143	0.186732	6215.697266
8124.488800	0.090095	0.186732	6296.512695
8124.489718	0.090135	0.186732	6379.257324
8125.480939	1.107524	0.191731	516.106384
8125.481853	1.541660	0.191731	1925.183838
8125.482762	1.526547	0.191731	3312.814697
8125.483710	1.485081	0.191731	4720.670898
8125.484667	0.860424	0.191731	5544.096191
8125.485557	0.101364	0.191731	5634.309570
8125.486484	0.089989	0.191731	5717.729492
8125.487421	0.090132	0.191731	5802.183105
8125.488328	0.090187	0.191731	5883.982422
8125.489222	0.090223	0.191731	5964.642090
8125.490173	0.090121	0.191731	6050.347168
8125.491106	0.090135	0.191731	6134.443359
8125.492006	0.090154	0.191731	6215.582031
8125.492921	0.090157	0.191731	6298.076172
8125.493859	0.090135	0.191731	6382.623047
8126.511088	1.091411	0.189213	506.414764
8126.512002	1.541364	0.189213	1915.221069
8126.512897	1.527579	0.189213	3282.404785
8126.513850	1.486556	0.189213	4699.092773
8126.514792	0.903124	0.189213	5549.835449
8126.515680	0.103455	0.189213	5641.703125
8126.516598	0.090103	0.189213	5724.417480
8126.517544	0.090205	0.189213	5809.751465
8126.518483	0.090150	0.189213	5894.402344
8126.519384	0.090253	0.189213	5975.720215
8126.520305	0.090125	0.189213	6058.725098
8126.521242	0.090234	0.189213	6143.274902
8126.522162	0.090154	0.189213	6226.216309
8126.523050	0.090088	0.189213	6306.214355
8126.523993	0.090161	0.189213	6391.236328
8127.518177	1.084281	0.196879	487.926422
8127.519098	1.540858	0.196879	1907.056763
8127.519996	1.527814	0.196879	3279.033447
8127.520916	1.488007	0.196879	4647.999512
8127.521858	0.950552	0.196879	5543.419434
8127.522764	0.106329	0.196879	5639.753906
8127.523663	0.090044	0.196879	5720.703613
8127.524598	0.090198	0.196879	5805.038574
8127.525506	0.090264	0.196879	5886.998047
8127.526410	0.090135	0.196879	5968.480469
8127.527303	0.090117	0.196879	6048.955078
8127.528243	0.090231	0.196879	6133.771973
8127.529144	0.090055	0.196879	6214.911621
8127.530036	0.090139	0.196879	6295.315918
8127.530954	0.090114	0.196879	6378.040039
8128.542194	1.117961	0.192271	526.559814
8128.543107	1.541649	0.192271	1934.085571
8128.544045	1.525503	0.192271	3365.007324
8128.544941	1.485677	0.192271	4696.174316
8128.545907	0.878192	0.192271	5544.507812
8128.546809	0.101587	0.192271	5636.139160
8128.547699	0.090106	0.192271	5716.333496
8128.548644	0.090231	0.192271	5801.601562
8128.549552	0.090143	0.192271	5883.451172
8128.550466	0.090201	0.192271	5965.895508
8128.551353	0.090183	0.192271	6045.887695
8128.552293	0.090223	0.192271	6130.697754
8128.553198	0.090165	0.192271	6212.296875
8128.554091	0.090190	0.192271	6292.836914
8128.555006	0.090238	0.192271	6375.404785
8129.558474	1.075781	0.195743	470.116394
8129.559448	1.542169	0.195743	1972.189209
8129.560379	1.524730	0.195743	3391.712891
8129.561288	1.484883	0.195743	4741.471680
8129.562247	0.858083	0.195743	5564.373535
8129.563168	0.098540	0.195743	5655.128906
8129.564089	0.090059	0.195743	5738.072754
8129.564981	0.090183	0.195743	5818.516113
8129.565892	0.090179	0.195743	5900.669434
8129.566817	0.090103	0.195743	5984.014160
8129.567739	0.090125	0.195743	6067.108887
8129.568632	0.090157	0.195743	6147.619629
8129.569563	0.090121	0.195743	6231.521973
8129.570487	0.090125	0.195743	6314.796875
8129.571397	0.090106	0.195743	6396.793457
8130.573308	1.132895	0.190015	549.454285
8130.574245	1.542656	0.190015	1994.923096
8130.575178	1.524060	0.190015	3416.871094
8130.576069	1.484604	0.190015	4739.653809
8130.577028	0.845486	0.190015	5550.474609
8130.577963	0.098123	0.190015	5642.219238
8130.578866	0.090055	0.190015	5723.539062
8130.579791	0.090110	0.190015	5806.890625
8130.580731	0.090143	0.190015	5891.625000
8130.581647	0.090132	0.190015	5974.185547
8130.582538	0.090198	0.190015	6054.551758
8130.583495	0.090128	0.190015	6140.804199
8130.584432	0.090106	0.190015	6225.233887
8130.585330	0.090179	0.190015	6306.214844
8130.586246	0.090198	0.190015	6388.835937
8131.599810	1.058881	0.192939	457.436462
8131.600763	1.539401	0.192939	1924.485107
8131.601670	1.527015	0.192939	3309.488281
8131.602573	1.487633	0.192939	4652.820801
8131.603473	1.006641	0.192939	5558.797363
8131.604417	0.107186	0.192939	5659.981445
8131.605309	0.090084	0.192939	5740.336426
8131.606210	0.090216	0.192939	5821.621094
8131.607112	0.090135	0.192939	5902.923340
8131.608052	0.090190	0.192939	5987.702148
8131.608961	0.090176	0.192939	6069.671875
8131.609864	0.090201	0.192939	6151.123535
8131.610793	0.090234	0.192939	6234.951172
8131.611692	0.090242	0.192939	6316.078613
8131.612589	0.090201	0.192939	6396.989258
8132.605906	1.069296	0.188387	473.697968
8132.606800	1.538914	0.188387	1849.486816
8132.607757	1.526594	0.188387	3310.437500
8132.608671	1.487219	0.188387	4669.755859
8132.609570	0.981910	0.188387	5552.493164
8132.610503	0.110248	0.188387	5655.354492
8132.611413	0.090143	0.188387	5737.384277
8132.612321	0.090157	0.188387	5819.247070
8132.613225	0.090194	0.188387	5900.782715
8132.614153	0.090264	0.188387	5984.547363
8132.615057	0.090220	0.188387	6066.105957
8132.615958	0.090081	0.188387	6147.268555
8132.616847	0.090106	0.188387	6227.373047
8132.617794	0.090209	0.188387	6312.800781
8132.618704	0.090227	0.188387	6394.907227
8133.640140	1.070153	0.194756	471.937317
8133.641083	1.540561	0.194756	1924.686768
8133.642001	1.526477	0.194756	3325.992676
8133.642912	1.487054	0.194756	4680.699219
8133.643816	0.958239	0.194756	5546.946777
8133.644757	0.103282	0.194756	5644.135742
8133.645665	0.090077	0.194756	5725.925781
8133.646558	0.090128	0.194756	5806.410156
8133.647478	0.090227	0.194756	5889.418945
8133.648391	0.090190	0.194756	5971.762695
8133.649295	0.090183	0.194756	6053.288086
8133.650216	0.090135	0.194756	6136.302734
8133.651105	0.090168	0.194756	6216.462402
8133.652040	0.090055	0.194756	6300.663574
8133.652941	0.090157	0.194756	6381.895508
8134.641638	1.105170	0.180951	506.167694
8134.642554	1.541272	0.180951	1917.972778
8134.643490	1.526070	0.180951	3346.374756
8134.644404	1.486373	0.180951	4704.919922
8134.645353	0.892277	0.180951	5551.690430
8134.646249	0.102601	0.180951	5643.621094
8134.647136	0.090114	0.180951	5723.551758
8134.648065	0.090172	0.180951	5807.321777
8134.648965	0.090165	0.180951	5888.470215
8134.649885	0.090132	0.180951	5971.391602
8134.650781	0.090209	0.180951	6052.218750
8134.651746	0.090179	0.180951	6139.241699
8134.652649	0.090168	0.180951	6220.663574
8134.653573	0.090289	0.180951	6304.090820
8134.654463	0.090183	0.180951	6384.354004
8135.674826	1.071420	0.203864	470.353241
8135.675793	1.541063	0.203864	1960.561401
8135.676721	1.524954	0.203864	3375.718262
8135.677617	1.485568	0.203864	4706.787109
8135.678550	0.894972	0.203864	5541.795898
8135.679495	0.100221	0.203864	5636.504883
8135.680436	0.090161	0.203864	5721.346680
8135.681338	0.090172	0.203864	5802.682129
8135.682262	0.090139	0.203864	5885.970703
8135.683204	0.090168	0.203864	5970.909180
8135.684115	0.090238	0.203864	6053.116211
8135.685001	0.090168	0.203864	6133.005371
8135.685942	0.090216	0.203864	6217.898926
8135.686878	0.090157	0.203864	6302.286133
8135.687775	0.090183	0.203864	6383.180176
8136.680421	1.094246	0.174550	494.598999
8136.681331	1.540697	0.174550	1896.633301
8136.682258	1.527195	0.174550	3312.342773
8136.683200	1.485688	0.174550	4711.861328
8136.684162	0.860665	0.174550	5539.821289
8136.685057	0.100708	0.174550	5629.955078
8136.685970	0.090099	0.174550	5712.215332
8136.686906	0.090048	0.174550	5796.500000
8136.687832	0.090165	0.174550	5879.992676
8136.688729	0.090084	0.174550	5960.798340
8136.689681	0.090117	0.174550	6046.589844
8136.690615	0.090125	0.174550	6130.766113
8136.691516	0.090168	0.174550	6212.007812
8136.692436	0.090139	0.174550	6294.936035
8136.693375	0.090165	0.174550	6379.600586
8137.706497	1.099442	0.206732	533.229431
8137.707400	1.541294	0.206732	1925.017822
8137.708318	1.525510	0.206732	3325.436035
8137.709221	1.486274	0.206732	4667.541992
8137.710176	0.899418	0.206732	5526.485840
8137.711073	0.102946	0.206732	5618.828125
8137.711975	0.090015	0.206732	5700.021484
8137.712862	0.090201	0.206732	5780.030273
8137.713809	0.090161	0.206732	5865.413086
8137.714708	0.090059	0.206732	5946.375977
8137.715609	0.090146	0.206732	6027.598145
8137.716511	0.090132	0.206732	6108.896973
8137.717441	0.090190	0.206732	6192.773926
8137.718345	0.090081	0.206732	6274.206543
8137.719245	0.090114	0.206732	6355.308594
8138.720266	1.148104	0.176601	569.459656
8138.721181	1.542645	0.176601	1980.979980
8138.722089	1.525316	0.176601	3365.967041
8138.722982	1.485513	0.176601	4692.529785
8138.723944	0.881451	0.176601	5540.486328
8138.724844	0.102228	0.176601	5632.491211
8138.725738	0.090077	0.176601	5713.020020
8138.726666	0.090168	0.176601	5796.696289
8138.727565	0.090212	0.176601	5877.797363
8138.728463	0.090099	0.176601	5958.706055
8138.729354	0.090165	0.176601	6039.042969
8138.730299	0.090264	0.176601	6124.342285
8138.731210	0.090168	0.176601	6206.485840
8138.732111	0.090267	0.176601	6287.816895
8138.732998	0.090179	0.176601	6367.806152
8139.736533	1.078352	0.209335	478.788330
8139.737507	1.542649	0.209335	1981.328369
8139.738424	1.524661	0.209335	3379.442139
8139.739325	1.485117	0.209335	4717.532715
8139.740277	0.881426	0.209335	5556.649902
8139.741179	0.101342	0.209335	5648.060059
8139.742080	0.090088	0.209335	5729.229492
8139.742966	0.090150	0.209335	5809.102539
8139.743907	0.090234	0.209335	5894.013184
8139.744819	0.090157	0.209335	5976.236816
8139.745725	0.090165	0.209335	6057.926270
8139.746619	0.090114	0.209335	6138.487793
8139.747571	0.090135	0.209335	6224.296875
8139.748477	0.090179	0.209335	6305.999512
8139.749366	0.090125	0.209335	6386.120117
8140.760586	1.099717	0.182474	550.958130
8140.761509	1.542404	0.182474	1974.596680
8140.762413	1.525236	0.182474	3353.409668
8140.763308	1.485842	0.182474	4683.238281
8140.764258	0.877621	0.182474	5516.978027
8140.765172	0.100748	0.182474	5609.062012
8140.766090	0.090114	0.182474	5691.786133
8140.766987	0.090176	0.182474	5772.673828
8140.767942	0.090146	0.182474	5858.763672
8140.768845	0.090084	0.182474	5940.109863
8140.769732	0.090165	0.182474	6020.085937
8140.770660	0.090201	0.182474	6103.792969
8140.771576	0.090135	0.182474	6186.356934
8140.772495	0.090183	0.182474	6269.235352
8140.773383	0.090132	0.182474	6349.272461
8141.767644	1.082618	0.212920	478.517365
8141.768561	1.539503	0.212920	1890.241699
8141.769463	1.527740	0.212920	3268.263672
8141.770398	1.487578	0.212920	4659.149414
8141.771344	0.933153	0.212920	5541.912109
8141.772243	0.105256	0.212920	5636.537598
8141.773133	0.090106	0.212920	5716.731934
8141.774063	0.090201	0.212920	5800.619141
8141.774985	0.090176	0.212920	5883.761230
8141.775898	0.090227	0.212920	5966.138672
8141.776786	0.090242	0.212920	6046.273437
8141.777737	0.090176	0.212920	6132.030762
8141.778629	0.090132	0.212920	6212.428223
8141.779516	0.090114	0.212920	6292.358887
8141.780456	0.090157	0.212920	6377.106934
8142.801371	1.083431	0.173342	484.293823
8142.802278	1.539910	0.173342	1880.991821
8142.803172	1.528085	0.173342	3247.099609
8142.804092	1.488446	0.173342	4616.469727
8142.805041	0.975359	0.173342	5542.085449
8142.805964	0.107966	0.173342	5641.738281
8142.806854	0.090114	0.173342	5721.939453
8142.807792	0.090198	0.173342	5806.544922
8142.808702	0.090150	0.173342	5888.581543
8142.809619	0.090238	0.173342	5971.329590
8142.810506	0.090172	0.173342	6051.312500
8142.811461	0.090187	0.173342	6137.440918
8142.812388	0.090201	0.173342	6221.057617
8142.813280	0.090154	0.173342	6301.474609
8142.814203	0.090172	0.173342	6384.703613
8143.802323	1.068344	0.204384	475.412872
8143.803219	1.539371	0.204384	1854.689575
8143.804179	1.526993	0.204384	3320.603271
8143.805085	1.486934	0.204384	4667.765137
8143.806022	0.929974	0.204384	5539.150879
8143.806919	0.105300	0.204384	5633.605469
8143.807863	0.090081	0.204384	5718.641602
8143.808783	0.090132	0.204384	5801.562988
8143.809675	0.090110	0.204384	5881.940918
8143.810582	0.090139	0.204384	5963.697266
8143.811526	0.090088	0.204384	6048.740234
8143.812441	0.090132	0.204384	6131.210937
8143.813332	0.090150	0.204384	6211.534668
8143.814272	0.090157	0.204384	6296.282715
8143.815170	0.090172	0.204384	6377.257324
8144.839134	1.077744	0.172951	480.673889
8144.840040	1.540342	0.172951	1876.223633
8144.840970	1.526854	0.172951	3296.198242
8144.841915	1.486121	0.172951	4700.582031
8144.842846	0.903596	0.172951	5541.830078
8144.843739	0.104055	0.172951	5634.751465
8144.844695	0.090088	0.172951	5720.875488
8144.845618	0.090183	0.172951	5804.114258
8144.846535	0.090121	0.172951	5886.754883
8144.847437	0.090099	0.172951	5968.023926
8144.848360	0.090165	0.172951	6051.246094
8144.849300	0.090055	0.172951	6135.897949
8144.850216	0.090227	0.172951	6218.545898
8144.851102	0.090212	0.172951	6298.474121
8144.852052	0.090125	0.172951	6384.092285
8145.839087	1.090690	0.193463	501.717255
8145.839997	1.540283	0.193463	1903.375000
8145.840895	1.526825	0.193463	3274.463867
8145.841863	1.485989	0.193463	4712.900879
8145.842815	0.869377	0.193463	5540.548340
8145.843706	0.100994	0.193463	5630.533691
8145.844630	0.090059	0.193463	5713.748047
8145.845562	0.090201	0.193463	5797.815918
8145.846478	0.090110	0.193463	5880.356445
8145.847379	0.090172	0.193463	5961.601562
8145.848327	0.090092	0.193463	6047.008301
8145.849261	0.090088	0.193463	6131.150391
8145.850177	0.090139	0.193463	6213.717773
8145.851065	0.090161	0.193463	6293.780762
8145.852007	0.090190	0.193463	6378.740234
8146.874318	1.070892	0.171932	473.334412
8146.875261	1.538881	0.171932	1924.498779
8146.876195	1.524573	0.171932	3348.449707
8146.877160	1.483063	0.171932	4779.605469
8146.878066	0.858926	0.171932	5557.791992
8146.879009	0.098895	0.171932	5651.050293
8146.879919	0.090165	0.171932	5733.100098
8146.880823	0.090106	0.171932	5814.556152
8146.881717	0.090077	0.171932	5895.084961
8146.882658	0.090114	0.171932	5979.881836
8146.883558	0.090135	0.171932	6061.003906
8146.884457	0.090139	0.171932	6142.039062
8146.885344	0.090220	0.171932	6222.063965
8146.886281	0.090110	0.171932	6306.497070
8146.887195	0.090088	0.171932	6388.837402
8147.875275	1.075594	0.186877	475.412750
8147.876233	1.542334	0.186877	1952.968628
8147.877157	1.525452	0.186877	3362.485840
8147.878059	1.486205	0.186877	4703.042480
8147.879008	0.899333	0.186877	5556.509766
8147.879916	0.101276	0.186877	5648.468262
8147.880817	0.089967	0.186877	5729.528320
8147.881710	0.090117	0.186877	5810.002930
8147.882655	0.090187	0.186877	5895.229492
8147.883557	0.090073	0.186877	5976.475586
8147.884450	0.090088	0.186877	6056.923828
8147.885336	0.090157	0.186877	6136.803223
8147.886290	0.090198	0.186877	6222.852051
8147.887205	0.090216	0.186877	6305.399902
8147.888107	0.090168	0.186877	6386.731934
8148.908999	1.074097	0.177672	470.454346
8148.909972	1.542063	0.177672	1970.881592
8148.910878	1.525291	0.177672	3352.794922
8148.911777	1.485981	0.177672	4688.692383
8148.912742	0.887999	0.177672	5545.611816
8148.913656	0.100814	0.177672	5637.755859
8148.914559	0.090125	0.177672	5719.138184
8148.915450	0.090070	0.177672	5799.390137
8148.916403	0.090176	0.177672	5885.327637
8148.917309	0.090125	0.177672	5966.980469
8148.918209	0.090183	0.177672	6048.145508
8148.919100	0.090103	0.177672	6128.426758
8148.920043	0.090245	0.177672	6213.528320
8148.920937	0.090135	0.177672	6294.109375
8148.921826	0.090073	0.177672	6374.184570
8149.912012	1.065970	0.187860	464.763092
8149.912961	1.538470	0.187860	1924.771484
8149.913881	1.525704	0.187860	3328.419434
8149.914793	1.486095	0.187860	4683.738281
8149.915690	0.965222	0.187860	5549.542480
8149.916635	0.104264	0.187860	5648.071777
8149.917554	0.089956	0.187860	5730.741211
8149.918469	0.090161	0.187860	5813.238770
8149.919359	0.090135	0.187860	5893.459473
8149.920313	0.090150	0.187860	5979.462891
8149.921206	0.090154	0.187860	6059.970215
8149.922118	0.090157	0.187860	6142.193848
8149.923015	0.090183	0.187860	6223.087891
8149.923957	0.090103	0.187860	6307.964355
8149.924880	0.090106	0.187860	6391.132324
8150.944252	1.087683	0.176995	521.000183
8150.945180	1.541931	0.176995	1951.912354
8150.946108	1.524514	0.176995	3366.661621
8150.947011	1.484890	0.176995	4707.517578
8150.947974	0.857377	0.176995	5533.171387
8150.948912	0.098489	0.176995	5625.553711
8150.949814	0.090103	0.176995	5706.826172
8150.950725	0.090073	0.176995	5788.882812
8150.951653	0.090095	0.176995	5872.491211
8150.952579	0.090088	0.176995	5955.912598
8150.953474	0.090172	0.176995	6036.616699
8150.954389	0.090143	0.176995	6119.097168
8150.955333	0.090081	0.176995	6204.133301
8150.956243	0.090212	0.176995	6286.226562
8150.957132	0.090146	0.176995	6366.366699
8151.946697	1.063956	0.191940	466.012848
8151.947658	1.540565	0.191940	1946.495850
8151.948594	1.524895	0.191940	3373.797363
8151.949519	1.484528	0.191940	4746.985352
8151.950423	0.903098	0.191940	5563.386230
8151.951372	0.100426	0.191940	5658.690430
8151.952293	0.090026	0.191940	5741.604004
8151.953209	0.090187	0.191940	5824.214844
8151.954099	0.090110	0.191940	5904.412598
8151.955052	0.090088	0.191940	5990.266602
8151.955988	0.090081	0.191940	6074.582031
8151.956878	0.090187	0.191940	6154.848145
8151.957794	0.090117	0.191940	6237.395508
8151.958728	0.090139	0.191940	6321.585449
8151.959650	0.090106	0.191940	6404.663574
8152.978904	1.078956	0.182405	485.530365
8152.979848	1.541664	0.182405	1940.861084
8152.980742	1.525800	0.182405	3304.925781
8152.981711	1.484286	0.182405	4743.198730
8152.982663	0.839564	0.182405	5542.463867
8152.983563	0.099489	0.182405	5632.003418
8152.984493	0.090059	0.182405	5715.757812
8152.985431	0.090238	0.182405	5800.400879
8152.986352	0.090081	0.182405	5883.365234
8152.987239	0.090157	0.182405	5963.334961
8152.988177	0.090084	0.182405	6047.833984
8152.989094	0.090121	0.182405	6130.474609
8152.990019	0.090139	0.182405	6213.853516
8152.990924	0.090293	0.182405	6295.568848
8152.991857	0.090260	0.182405	6379.781250
8153.981958	1.128431	0.190905	559.701904
8153.982872	1.542250	0.190905	1969.318115
8153.983777	1.525547	0.190905	3349.937988
8153.984670	1.486377	0.190905	4677.272461
8153.985630	0.906090	0.190905	5547.119141
8153.986526	0.103458	0.190905	5639.817871
8153.987423	0.090150	0.190905	5720.682617
8153.988353	0.090190	0.190905	5804.559570
8153.989266	0.090245	0.190905	5886.953613
8153.990179	0.090146	0.190905	5969.257324
8153.991076	0.090216	0.190905	6050.181152
8153.992010	0.090278	0.190905	6134.500977
8153.992908	0.090223	0.190905	6215.521484
8153.993808	0.090264	0.190905	6296.758789
8153.994696	0.090168	0.190905	6376.828613
8155.015116	1.062521	0.184855	462.196533
8155.016080	1.539800	0.184855	1946.563599
8155.016983	1.525521	0.184855	3324.109375
8155.017905	1.485352	0.184855	4693.603516
8155.018816	0.931139	0.184855	5541.871094
8155.019765	0.101005	0.184855	5637.724609
8155.020667	0.090004	0.184855	5718.907715
8155.021555	0.090092	0.184855	5798.909180
8155.022488	0.090125	0.184855	5882.995117
8155.023392	0.090146	0.184855	5964.487305
8155.024291	0.090040	0.184855	6045.433594
8155.025179	0.090121	0.184855	6125.460937
8155.026135	0.090073	0.184855	6211.570801
8155.027042	0.090150	0.184855	6293.336914
8155.027952	0.090157	0.184855	6375.380371
8156.017107	1.092202	0.191042	489.306519
8156.018045	1.541199	0.191042	1934.950928
8156.018951	1.526093	0.191042	3317.590820
8156.019885	1.485249	0.191042	4704.813477
8156.020837	0.876552	0.191042	5539.290527
8156.021760	0.099877	0.191042	5631.476562
8156.022652	0.090000	0.191042	5711.756348
8156.023618	0.090114	0.191042	5798.806152
8156.024532	0.090179	0.191042	5881.229980
8156.025420	0.090114	0.191042	5961.250977
8156.026363	0.090132	0.191042	6046.245117
8156.027279	0.090062	0.191042	6128.742187
8156.028198	0.090099	0.191042	6211.542969
8156.029097	0.090172	0.191042	6292.607910
8156.030037	0.090095	0.191042	6377.297363
8157.051874	1.085508	0.183171	488.478485
8157.052772	1.540089	0.183171	1871.478516
8157.053667	1.527792	0.183171	3238.852051
8157.054624	1.487051	0.183171	4661.959473
8157.055578	0.924229	0.183171	5543.673340
8157.056468	0.104784	0.183171	5636.931152
8157.057391	0.090092	0.183171	5720.085449
8157.058324	0.090132	0.183171	5804.178223
8157.059235	0.090183	0.183171	5886.334961
8157.060126	0.090205	0.183171	5966.707520
8157.061074	0.090198	0.183171	6052.214844
8157.062010	0.090172	0.183171	6136.615723
8157.062913	0.090238	0.183171	6218.100586
8157.063831	0.090168	0.183171	6300.875000
8157.064764	0.090304	0.183171	6385.128418
8158.052310	1.082307	0.194788	485.955902
8158.053209	1.539229	0.194788	1869.722412
8158.054103	1.528070	0.194788	3235.816895
8158.055062	1.486798	0.194788	4661.656250
8158.055982	0.960912	0.194788	5545.695312
8158.056888	0.107604	0.194788	5643.184082
8158.057781	0.090066	0.194788	5723.612793
8158.058716	0.090150	0.194788	5807.903320
8158.059628	0.090125	0.194788	5890.096680
8158.060525	0.090212	0.194788	5971.017090
8158.061454	0.090209	0.194788	6054.820801
8158.062355	0.090183	0.194788	6136.075684
8158.063258	0.090121	0.194788	6217.454590
8158.064144	0.090249	0.194788	6297.415039
8158.065086	0.090198	0.194788	6382.381348
8159.088074	1.071650	0.181406	471.526184
8159.089027	1.541100	0.181406	1940.194336
8159.089943	1.525367	0.181406	3337.430908
8159.090879	1.485000	0.181406	4727.390625
8159.091780	0.915923	0.181406	5552.637207
8159.092734	0.100096	0.181406	5648.129395
8159.093639	0.090139	0.181406	5729.705566
8159.094530	0.090176	0.181406	5810.052246
8159.095483	0.090264	0.181406	5896.073730
8159.096393	0.090245	0.181406	5978.196777
8159.097305	0.090231	0.181406	6060.487305
8159.098201	0.090212	0.181406	6141.317383
8159.099140	0.090234	0.181406	6226.047363
8159.100061	0.090209	0.181406	6309.129395
8159.100983	0.090201	0.181406	6392.294922
8160.087541	1.112095	0.201584	538.253784
8160.088439	1.541082	0.201584	1922.145020
8160.089382	1.524836	0.201584	3360.065918
8160.090305	1.484304	0.201584	4730.078613
8160.091232	0.883663	0.201584	5549.234375
8160.092120	0.102565	0.201584	5640.312012
8160.093083	0.090095	0.201584	5727.073730
8160.094010	0.090220	0.201584	5810.707520
8160.094901	0.090092	0.201584	5890.979004
8160.095842	0.090242	0.201584	5975.896484
8160.096760	0.090212	0.201584	6058.711426
8160.097685	0.090234	0.201584	6142.178223
8160.098576	0.090194	0.201584	6222.541016
8160.099518	0.090157	0.201584	6307.469238
8160.100419	0.090220	0.201584	6388.757324
8161.123832	1.085581	0.173789	512.394287
8161.124742	1.541451	0.173789	1915.115112
8161.125639	1.526931	0.173789	3284.772217
8161.126568	1.487164	0.173789	4666.347656
8161.127519	0.908943	0.173789	5530.752441
8161.128446	0.100657	0.173789	5624.061035
8161.129333	0.090055	0.173789	5703.939941
8161.130287	0.090088	0.173789	5789.883789
8161.131220	0.090018	0.173789	5873.871094
8161.132131	0.090238	0.173789	5956.078125
8161.133015	0.090198	0.173789	6035.812988
8161.133947	0.090168	0.173789	6119.850098
8161.134873	0.090157	0.173789	6203.335937
8161.135793	0.090161	0.173789	6286.284180
8161.136683	0.090143	0.173789	6366.511230
8162.124752	1.077382	0.201822	476.202667
8162.125667	1.538899	0.201822	1884.295166
8162.126570	1.526891	0.201822	3263.077637
8162.127497	1.487512	0.201822	4642.001465
8162.128428	0.970122	0.201822	5545.185059
8162.129337	0.108417	0.201822	5643.735840
8162.130226	0.090125	0.201822	5723.856445
8162.131150	0.090275	0.201822	5807.270020
8162.132056	0.090187	0.201822	5888.979004
8162.132956	0.090179	0.201822	5970.140625
8162.133845	0.090187	0.201822	6050.316895
8162.134788	0.090271	0.201822	6135.442383
8162.135691	0.090150	0.201822	6216.848145
8162.136585	0.090176	0.201822	6297.465332
8162.137512	0.090187	0.201822	6381.068359
8163.157450	1.067714	0.169781	467.658569
8163.158411	1.541902	0.169781	1949.426270
8163.159326	1.525565	0.169781	3345.318359
8163.160221	1.486388	0.169781	4675.635742
8163.161156	0.931989	0.169781	5547.044922
8163.162074	0.103242	0.169781	5641.821289
8163.162982	0.090110	0.169781	5723.641113
8163.163871	0.090183	0.169781	5803.813965
8163.164812	0.090304	0.169781	5888.790039
8163.165727	0.090187	0.169781	5971.311035
8163.166620	0.090132	0.169781	6051.798828
8163.167513	0.090092	0.169781	6132.250488
8163.168448	0.090267	0.169781	6216.650391
8163.169350	0.090227	0.169781	6298.035156
8163.170245	0.090143	0.169781	6378.712891
8164.164047	1.071727	0.195659	474.775177
8164.165020	1.539024	0.195659	1972.244995
8164.165921	1.524642	0.195659	3345.947754
8164.166843	1.484355	0.195659	4714.523437
8164.167755	0.917362	0.195659	5551.157715
8164.168710	0.099287	0.195659	5645.977051
8164.169618	0.090051	0.195659	5727.743652
8164.170536	0.090201	0.195659	5810.548340
8164.171427	0.090179	0.195659	5890.898437
8164.172375	0.090117	0.195659	5976.329590
8164.173274	0.090117	0.195659	6057.344727
8164.174161	0.090187	0.195659	6137.340332
8164.175108	0.090223	0.195659	6222.781738
8164.176005	0.090154	0.195659	6303.649902
8164.176916	0.090194	0.195659	6385.816895
8165.188041	1.061400	0.172113	459.586273
8165.188975	1.538166	0.172113	1896.233765
8165.189905	1.525876	0.172113	3315.298828
8165.190828	1.485963	0.172113	4686.842773
8165.191731	0.959198	0.172113	5552.998535
8165.192690	0.103784	0.172113	5652.527344
8165.193624	0.090040	0.172113	5736.625000
8165.194523	0.090157	0.172113	5817.676758
8165.195440	0.090143	0.172113	5900.337891
8165.196358	0.090110	0.172113	5983.058594
8165.197282	0.090128	0.172113	6066.336914
8165.198179	0.090103	0.172113	6147.158691
8165.199102	0.090051	0.172113	6230.275879
8165.200043	0.090059	0.172113	6315.020996
8165.200954	0.090194	0.172113	6397.187988
8166.203890	1.100306	0.194994	521.545227
8166.204789	1.540686	0.194994	1906.622070
8166.205733	1.525422	0.194994	3346.620605
8166.206665	1.484517	0.194994	4730.189941
8166.207593	0.879840	0.194994	5546.681641
8166.208491	0.101653	0.194994	5637.965820
8166.209406	0.090139	0.194994	5720.443359
8166.210342	0.090150	0.194994	5804.823730
8166.211261	0.090154	0.194994	5887.675293
8166.212151	0.090154	0.194994	5967.912109
8166.213107	0.090114	0.194994	6054.060547
8166.214043	0.090117	0.194994	6138.410156
8166.214947	0.090168	0.194994	6219.922363
8166.215867	0.090088	0.194994	6302.803223
8166.216790	0.090029	0.194994	6385.900391
8167.219151	1.077078	0.175779	477.145386
8167.220124	1.541034	0.175779	1976.571289
8167.221052	1.524254	0.175779	3391.079102
8167.221947	1.485073	0.175779	4720.219727
8167.222890	0.873413	0.175779	5543.848145
8167.223831	0.099104	0.175779	5637.104980
8167.224750	0.090114	0.175779	5719.919434
8167.225649	0.090154	0.175779	5800.967773
8167.226602	0.090110	0.175779	5886.842285
8167.227545	0.090132	0.175779	5971.836426
8167.228439	0.090117	0.175779	6052.401367
8167.229358	0.090088	0.175779	6135.192383
8167.230291	0.090066	0.175779	6219.224121
8167.231218	0.090176	0.175779	6302.816895
8167.232115	0.090125	0.175779	6383.658691
8168.244206	1.108619	0.198849	521.051147
8168.245116	1.541342	0.198849	1923.671997
8168.246011	1.526678	0.198849	3290.049316
8168.246978	1.485410	0.198849	4726.440918
8168.247925	0.863899	0.198849	5544.553223
8168.248845	0.099342	0.198849	5635.947754
8168.249735	0.090161	0.198849	5716.191406
8168.250684	0.090223	0.198849	5801.813477
8168.251584	0.090154	0.198849	5882.952148
8168.252481	0.090242	0.198849	5963.898926
8168.253369	0.090253	0.198849	6044.043457
8168.254308	0.090264	0.198849	6128.801270
8168.255220	0.090168	0.198849	6211.034668
8168.256116	0.090150	0.198849	6291.809082
8168.257041	0.090253	0.198849	6375.292969
8169.251279	1.078956	0.170743	477.977661
8169.252182	1.539273	0.170743	1867.940796
8169.253075	1.527938	0.170743	3232.389648
8169.254051	1.486179	0.170743	4682.900391
8169.254968	0.946978	0.170743	5551.278809
8169.255865	0.106846	0.170743	5647.119629
8169.256792	0.090059	0.170743	5730.604004
8169.257687	0.090348	0.170743	5811.465332
8169.258598	0.090172	0.170743	5893.612305
8169.259494	0.090161	0.170743	5974.396484
8169.260431	0.090238	0.170743	6058.949707
8169.261336	0.090190	0.170743	6140.572266
8169.262236	0.090205	0.170743	6221.756836
8169.263123	0.090176	0.170743	6301.742676
8169.264067	0.090311	0.170743	6386.996582
8170.284522	1.110322	0.193234	515.189514
8170.285430	1.540485	0.193234	1913.949707
8170.286327	1.526997	0.193234	3283.666016
8170.287298	1.485857	0.193234	4726.433105
8170.288224	0.905544	0.193234	5564.967285
8170.289118	0.103011	0.193234	5657.059570
8170.290008	0.090092	0.193234	5737.241211
8170.290945	0.090223	0.193234	5821.780762
8170.291856	0.090190	0.193234	5903.944336
8170.292761	0.090157	0.193234	5985.536621
8170.293658	0.090190	0.193234	6066.437500
8170.294593	0.090198	0.193234	6150.772461
8170.295495	0.090135	0.193234	6232.074707
8170.296385	0.090223	0.193234	6312.373535
8170.297319	0.090205	0.193234	6396.625000
8171.285975	1.084636	0.175416	487.001648
8171.286873	1.539481	0.175416	1869.455811
8171.287831	1.525715	0.175416	3331.091064
8171.288749	1.485333	0.175416	4694.626953
8171.289685	0.914700	0.175416	5550.786133
8171.290575	0.105103	0.175416	5644.327148
8171.291524	0.090099	0.175416	5729.831055
8171.292421	0.090117	0.175416	5810.666016
8171.293309	0.090157	0.175416	5890.726074
8171.294248	0.090198	0.175416	5975.421875
8171.295159	0.090231	0.175416	6057.622070
8171.296078	0.090121	0.175416	6140.443359
8171.296974	0.090154	0.175416	6221.221191
8171.297927	0.090245	0.175416	6307.225098
8171.298840	0.090103	0.175416	6389.488770
8172.320218	1.082538	0.190853	481.729309
8172.321118	1.538906	0.190853	1866.744873
8172.322099	1.524554	0.190853	3362.332764
8172.323033	1.483942	0.190853	4748.333984
8172.323937	0.896378	0.190853	5558.659668
8172.324864	0.102909	0.190853	5654.056152
8172.325794	0.090011	0.190853	5737.766602
8172.326711	0.090146	0.190853	5820.431152
8172.327609	0.090161	0.190853	5901.395996
8172.328538	0.090081	0.190853	5985.081055
8172.329476	0.090168	0.190853	6069.659180
8172.330393	0.090205	0.190853	6152.377441
8172.331288	0.090179	0.190853	6233.087891
8172.332225	0.090209	0.190853	6317.613281
8172.333157	0.090117	0.190853	6401.602539
8173.322728	1.093898	0.177124	508.662445
8173.323648	1.541012	0.177124	1926.393433
8173.324546	1.526360	0.177124	3297.064697
8173.325477	1.485861	0.177124	4680.400879
8173.326437	0.888065	0.177124	5532.943359
8173.327357	0.101122	0.177124	5625.975586
8173.328242	0.090070	0.177124	5705.687012
8173.329186	0.090150	0.177124	5790.788574
8173.330121	0.090128	0.177124	5875.058594
8173.331011	0.090194	0.177124	5955.331543
8173.331925	0.090223	0.177124	6037.795898
8173.332858	0.090143	0.177124	6121.898926
8173.333773	0.090209	0.177124	6204.439941
8173.334669	0.090201	0.177124	6285.260254
8173.335622	0.090220	0.177124	6371.239746
8174.352372	1.105953	0.188194	529.751648
8174.353307	1.542166	0.188194	1971.676514
8174.354241	1.523573	0.188194	3394.693604
8174.355149	1.483817	0.188194	4741.999512
8174.356104	0.840959	0.188194	5545.115723
8174.357003	0.099166	0.188194	5634.266113
8174.357905	0.090139	0.188194	5715.571777
8174.358799	0.090227	0.188194	5796.234863
8174.359726	0.090231	0.188194	5879.878906
8174.360637	0.090267	0.188194	5962.112305
8174.361532	0.090187	0.188194	6042.829590
8174.362419	0.090187	0.188194	6122.825195
8174.363353	0.090198	0.188194	6207.069824
8174.364257	0.090150	0.188194	6288.565430
8174.365162	0.090172	0.188194	6370.171387
8175.361993	1.068922	0.175867	468.187866
8175.362942	1.539001	0.175867	1928.700317
8175.363857	1.526060	0.175867	3325.044922
8175.364758	1.486469	0.175867	4664.353027
8175.365654	0.990194	0.175867	5551.566895
8175.366598	0.105282	0.175867	5650.953125
8175.367501	0.090088	0.175867	5732.302734
8175.368410	0.090183	0.175867	5814.279297
8175.369298	0.090198	0.175867	5894.375000
8175.370256	0.090253	0.175867	5980.836914
8175.371157	0.090154	0.175867	6062.065430
8175.372059	0.090242	0.175867	6143.463379
8175.372986	0.090201	0.175867	6227.080078
8175.373889	0.090176	0.175867	6308.508789
8175.374789	0.090106	0.175867	6389.604492
8176.384011	1.135349	0.189596	566.539246
8176.384913	1.541290	0.189596	1956.783203
8176.385838	1.525027	0.189596	3367.433105
8176.386739	1.485143	0.189596	4705.546875
8176.387721	0.840051	0.189596	5530.477051
8176.388625	0.099056	0.189596	5620.023926
8176.389513	0.090007	0.189596	5699.950195
8176.390449	0.090205	0.189596	5784.382324
8176.391359	0.090117	0.189596	5866.389160
8176.392276	0.090139	0.189596	5949.046875
8176.393168	0.090157	0.189596	6029.467285
8176.394119	0.090172	0.189596	6115.221191
8176.395019	0.090103	0.189596	6196.313477
8176.395935	0.090183	0.189596	6278.921387
8176.396831	0.090110	0.189596	6359.659668
8177.401316	1.077030	0.173708	488.971649
8177.402217	1.539558	0.173708	1876.113525
8177.403114	1.527371	0.173708	3246.165039
8177.404055	1.487267	0.173708	4645.683105
8177.404976	0.941796	0.173708	5513.077148
8177.405912	0.103579	0.173708	5610.027344
8177.406802	0.090077	0.173708	5690.195801
8177.407756	0.090103	0.173708	5776.153809
8177.408673	0.090117	0.173708	5858.791504
8177.409589	0.090157	0.173708	5941.375977
8177.410477	0.090044	0.173708	6021.334961
8177.411426	0.090110	0.173708	6106.849121
8177.412342	0.090198	0.173708	6189.470215
8177.413234	0.090103	0.173708	6269.841797
8177.414166	0.090168	0.173708	6353.878906
8178.416084	1.068893	0.190168	476.726196
8178.416987	1.539371	0.190168	1866.778564
8178.417916	1.527089	0.190168	3285.443848
8178.418862	1.486150	0.190168	4691.341797
8178.419793	0.916014	0.190168	5544.151367
8178.420678	0.105275	0.190168	5637.319336
8178.421623	0.090070	0.190168	5722.435059
8178.422556	0.090125	0.190168	5806.520996
8178.423457	0.090095	0.190168	5887.696777
8178.424378	0.090146	0.190168	5970.721680
8178.425304	0.090154	0.190168	6054.204102
8178.426236	0.090157	0.190168	6138.230957
8178.427135	0.090216	0.190168	6219.334961
8178.428060	0.090143	0.190168	6302.717285
8178.428995	0.090106	0.190168	6386.966797
8179.440095	1.081212	0.174317	489.789124
8179.440990	1.539273	0.174317	1867.437988
8179.441924	1.526001	0.174317	3292.722900
8179.442874	1.484626	0.174317	4703.118164
8179.443808	0.897682	0.174317	5541.553223
8179.444705	0.102975	0.174317	5633.921875
8179.445655	0.090051	0.174317	5719.470703
8179.446593	0.090157	0.174317	5804.038574
8179.447495	0.090157	0.174317	5885.360840
8179.448409	0.090132	0.174317	5967.741211
8179.449348	0.090183	0.174317	6052.423340
8179.450265	0.090187	0.174317	6135.124512
8179.451155	0.090084	0.174317	6215.299316
8179.452101	0.090106	0.174317	6300.539551
8179.453035	0.090066	0.174317	6384.661133
8180.449742	1.081970	0.186530	480.394775
8180.450686	1.540920	0.186530	1935.023560
8180.451588	1.525309	0.186530	3310.852051
8180.452553	1.483770	0.186530	4742.689453
8180.453505	0.845815	0.186530	5547.905762
8180.454394	0.100422	0.186530	5637.181152
8180.455321	0.090059	0.186530	5720.665527
8180.456250	0.090088	0.186530	5804.357422
8180.457182	0.090190	0.186530	5888.415039
8180.458080	0.090231	0.186530	5969.442383
8180.459022	0.090209	0.186530	6054.418945
8180.459921	0.090308	0.186530	6135.605469
8180.460833	0.090165	0.186530	6217.835937
8180.461730	0.090168	0.186530	6298.716797
8180.462679	0.090260	0.186530	6384.373535
8181.478890	1.072921	0.172117	501.054169
8181.479810	1.540338	0.172117	1918.165283
8181.480730	1.525474	0.172117	3321.601074
8181.481626	1.486454	0.172117	4653.463867
8181.482581	0.910356	0.172117	5522.854492
8181.483487	0.103055	0.172117	5616.222656
8181.484391	0.090132	0.172117	5697.701660
8181.485286	0.090073	0.172117	5778.317383
8181.486241	0.090187	0.172117	5864.445801
8181.487153	0.090099	0.172117	5946.616211
8181.488052	0.090187	0.172117	6027.694336
8181.488945	0.090077	0.172117	6108.132812
8181.489893	0.090198	0.172117	6193.640137
8181.490787	0.090128	0.172117	6274.214844
8181.491694	0.090157	0.172117	6355.987793
8182.485449	1.065370	0.184138	468.762726
8182.486416	1.541543	0.184138	1959.434814
8182.487328	1.524657	0.184138	3349.921875
8182.488232	1.485201	0.184138	4692.543945
8182.489133	0.927510	0.184138	5528.230469
8182.490091	0.101891	0.184138	5625.841797
8182.490992	0.090022	0.184138	5706.951660
8182.491879	0.090132	0.184138	5786.898437
8182.492805	0.090231	0.184138	5870.452148
8182.493720	0.090220	0.184138	5953.003418
8182.494628	0.090157	0.184138	6034.866211
8182.495519	0.090114	0.184138	6115.157227
8182.496475	0.090278	0.184138	6201.463379
8182.497378	0.090143	0.184138	6282.862305
8182.498270	0.090209	0.184138	6363.328613
8183.515606	1.072364	0.176158	471.840363
8183.516566	1.540232	0.176158	1950.463013
8183.517471	1.525071	0.176158	3330.652100
8183.518406	1.484388	0.176158	4718.555176
8183.519308	0.924269	0.176158	5552.245605
8183.520251	0.104059	0.176158	5650.373047
8183.521153	0.090128	0.176158	5731.668457
8183.522066	0.090150	0.176158	5813.975586
8183.522966	0.090135	0.176158	5895.097656
8183.523918	0.090084	0.176158	5980.857910
8183.524839	0.090212	0.176158	6063.943359
8183.525760	0.090161	0.176158	6146.981934
8183.526649	0.090146	0.176158	6227.122070
8183.527603	0.090179	0.176158	6313.153320
8183.528526	0.090132	0.176158	6396.345215
8184.521688	1.081161	0.183727	485.441254
8184.522582	1.538701	0.183727	1861.040161
8184.523540	1.525005	0.183727	3321.994873
8184.524460	1.484539	0.183727	4687.770508
8184.525385	0.926397	0.183727	5544.687500
8184.526281	0.105044	0.183727	5638.806641
8184.527232	0.090055	0.183727	5724.448730
8184.528155	0.090117	0.183727	5807.626953
8184.529048	0.090103	0.183727	5888.088379
8184.529965	0.090161	0.183727	5970.766113
8184.530896	0.090055	0.183727	6054.607422
8184.531818	0.090165	0.183727	6137.739258
8184.532737	0.090194	0.183727	6220.627441
8184.533633	0.090234	0.183727	6301.477539
8184.534569	0.090154	0.183727	6385.861328
8185.552361	1.104152	0.170961	511.222198
8185.553256	1.539543	0.170961	1889.113525
8185.554202	1.524983	0.170961	3331.747559
8185.555153	1.483894	0.170961	4742.930664
8185.556071	0.881543	0.170961	5552.187012
8185.556966	0.101949	0.170961	5643.431641
8185.557923	0.090062	0.170961	5729.621094
8185.558865	0.090161	0.170961	5814.552734
8185.559770	0.090179	0.170961	5896.165039
8185.560685	0.090172	0.170961	5978.672363
8185.561621	0.090125	0.170961	6063.028809
8185.562539	0.090190	0.170961	6145.823730
8185.563432	0.090121	0.170961	6226.301758
8185.564377	0.090205	0.170961	6311.545410
8185.565317	0.090183	0.170961	6396.317383
8186.557930	1.090389	0.176351	507.031067
8186.558864	1.540638	0.176351	1945.987305
8186.559792	1.524049	0.176351	3360.304687
8186.560688	1.484388	0.176351	4690.316895
8186.561655	0.863987	0.176351	5525.791992
8186.562599	0.099163	0.176351	5619.401367
8186.563496	0.090125	0.176351	5700.243164
8186.564419	0.090231	0.176351	5783.525879
8186.565357	0.090256	0.176351	5868.186523
8186.566274	0.090212	0.176351	5950.911133
8186.567168	0.090194	0.176351	6031.544434
8186.568104	0.090150	0.176351	6115.924805
8186.569035	0.090183	0.176351	6199.885254
8186.569940	0.090143	0.176351	6281.464355
8186.570854	0.090176	0.176351	6363.885254
8187.588047	1.078770	0.172399	477.894928
8187.589027	1.541715	0.172399	1988.775757
8187.589935	1.523987	0.172399	3372.555664
8187.590835	1.484575	0.172399	4708.673340
8187.591808	0.865906	0.172399	5551.199707
8187.592697	0.100803	0.172399	5640.813965
8187.593595	0.090187	0.172399	5721.801758
8187.594485	0.090187	0.172399	5802.067871
8187.595423	0.090249	0.172399	5886.721680
8187.596321	0.090209	0.172399	5967.729004
8187.597224	0.090172	0.172399	6049.154297
8187.598114	0.090139	0.172399	6129.377930
8187.599057	0.090220	0.172399	6214.455078
8187.599969	0.090234	0.172399	6296.749023
8187.600865	0.090157	0.172399	6377.530273
8188.594120	1.065579	0.175166	465.657837
8188.595095	1.538445	0.175166	1965.641602
8188.595999	1.524196	0.175166	3343.514404
8188.596910	1.484377	0.175166	4695.782227
8188.597811	0.944161	0.175166	5546.471680
8188.598740	0.103235	0.175166	5642.376953
8188.599653	0.090110	0.175166	5724.647461
8188.600552	0.090172	0.175166	5805.712402
8188.601463	0.090194	0.175166	5887.879395
8188.602393	0.090205	0.175166	5971.770020
8188.603298	0.090165	0.175166	6053.369141
8188.604188	0.090212	0.175166	6133.658203
8188.605131	0.090205	0.175166	6218.721680
8188.606032	0.090223	0.175166	6300.013184
8188.606934	0.090194	0.175166	6381.368164
8189.623264	1.094550	0.169031	495.830933
8189.624164	1.538866	0.169031	1880.810425
8189.625080	1.525785	0.169031	3278.429443
8189.626018	1.484927	0.169031	4671.290527
8189.626933	0.953877	0.169031	5544.087891
8189.627821	0.108146	0.169031	5640.121094
8189.628780	0.090176	0.169031	5726.599609
8189.629687	0.090179	0.169031	5808.392578
8189.630585	0.090220	0.169031	5889.409668
8189.631469	0.090223	0.169031	5969.166992
8189.632397	0.090282	0.169031	6052.948730
8189.633299	0.090179	0.169031	6134.290527
8189.634217	0.090154	0.169031	6217.051758
8189.635124	0.090194	0.169031	6298.857910
8189.636067	0.090223	0.169031	6383.938477
8190.630857	1.062301	0.178619	462.100952
8190.631812	1.537335	0.178619	1930.256104
8190.632717	1.524657	0.178619	3310.070801
8190.633628	1.485436	0.178619	4663.302734
8190.634533	0.971646	0.178619	5542.642090
8190.635469	0.105110	0.178619	5641.024902
8190.636381	0.090022	0.178619	5723.125000
8190.637283	0.090205	0.178619	5804.489746
8190.638170	0.090198	0.178619	5884.495117
8190.639124	0.090227	0.178619	5970.571777
8190.640023	0.090135	0.178619	6051.603516
8190.640944	0.090146	0.178619	6134.628418
8190.641832	0.090216	0.178619	6214.740234
8190.642775	0.090157	0.178619	6299.758789
8190.643681	0.090168	0.178619	6381.451172
8191.656427	1.098973	0.175191	505.527771
8191.657327	1.539086	0.175191	1890.704834
8191.658222	1.526455	0.175191	3256.882324
8191.659165	1.485893	0.175191	4658.080078
8191.660101	0.927129	0.175191	5525.872559
8191.661026	0.103253	0.175191	5621.381836
8191.661927	0.090099	0.175191	5702.561035
8191.662867	0.090132	0.175191	5787.285156
8191.663773	0.090099	0.175191	5868.914551
8191.664699	0.090223	0.175191	5952.461426
8191.665585	0.090099	0.175191	6032.289062
8191.666539	0.090150	0.175191	6118.292480
8191.667469	0.090095	0.175191	6202.081055
8191.668361	0.090132	0.175191	6282.478516
8191.669295	0.090081	0.175191	6366.613770
8192.667634	1.093729	0.181858	518.427612
8192.668534	1.539855	0.181858	1904.296753
8192.669472	1.524448	0.181858	3334.229248
8192.670407	1.483187	0.181858	4721.009277
8192.671338	0.871959	0.181858	5532.803223
8192.672235	0.101400	0.181858	5623.759277
8192.673175	0.090092	0.181858	5708.445312
8192.674108	0.090209	0.181858	5792.609863
8192.675005	0.090220	0.181858	5873.537109
8192.675934	0.090168	0.181858	5957.303711
8192.676862	0.090176	0.181858	6040.986816
8192.677783	0.090150	0.181858	6124.015137
8192.678698	0.090154	0.181858	6206.505859
8192.679588	0.090132	0.181858	6286.723145
8192.680519	0.090088	0.181858	6370.594727
8193.689546	1.062188	0.174103	465.238159
8193.690495	1.539437	0.174103	1926.164062
8193.691435	1.523492	0.174103	3358.247070
8193.692353	1.483458	0.174103	4720.061523
8193.693266	0.899011	0.174103	5540.858887
8193.694203	0.100598	0.174103	5635.119141
8193.695140	0.090084	0.174103	5719.527832
8193.696032	0.090154	0.174103	5799.944824
8193.696959	0.090165	0.174103	5883.527344
8193.697907	0.090205	0.174103	5969.041992
8193.698821	0.090308	0.174103	6051.583008
8193.699715	0.090150	0.174103	6132.177246
8193.700642	0.090201	0.174103	6215.793945
8193.701574	0.090216	0.174103	6299.875488
8193.702474	0.090260	0.174103	6381.109375
8194.704876	1.086954	0.187517	502.172913
8194.705786	1.539697	0.187517	1903.297363
8194.706682	1.525734	0.187517	3270.354736
8194.707646	1.484176	0.187517	4701.100586
8194.708599	0.878580	0.187517	5538.387695
8194.709495	0.101873	0.187517	5629.665527
8194.710422	0.090095	0.187517	5713.183594
8194.711366	0.090154	0.187517	5798.288574
8194.712295	0.090146	0.187517	5882.034668
8194.713187	0.090176	0.187517	5962.471680
8194.714121	0.090073	0.187517	6046.600098
8194.715057	0.090150	0.187517	6130.980469
8194.715958	0.090146	0.187517	6212.202637
8194.716876	0.090154	0.187517	6294.963867
8194.717808	0.090081	0.187517	6378.918945
8195.722716	1.089437	0.171726	497.872833
8195.723611	1.538815	0.171726	1875.112061
8195.724560	1.525349	0.171726	3322.668457
8195.725473	1.485403	0.171726	4678.841309
8195.726379	0.961494	0.171726	5549.955078
8195.727269	0.108710	0.171726	5646.706543
8195.728225	0.090209	0.171726	5732.946289
8195.729136	0.090135	0.171726	5815.059570
8195.730034	0.090168	0.171726	5896.030762
8195.730964	0.090300	0.171726	5980.010254
8195.731868	0.090161	0.171726	6061.516113
8195.732762	0.090223	0.171726	6142.175781
8195.733647	0.090168	0.171726	6221.975098
8195.734583	0.090289	0.171726	6306.485840
8195.735474	0.090293	0.171726	6386.937012
8196.744661	1.080458	0.178083	476.481842
8196.745588	1.539287	0.178083	1903.401001
8196.746496	1.525587	0.178083	3288.634277
8196.747433	1.485502	0.178083	4680.549316
8196.748351	0.948578	0.178083	5551.343750
8196.749249	0.106633	0.178083	5647.100586
8196.750134	0.090044	0.178083	5726.789551
8196.751080	0.090198	0.178083	5812.116699
8196.751982	0.090234	0.178083	5893.508301
8196.752880	0.090114	0.178083	5974.430176
8196.753766	0.090110	0.178083	6054.267578
8196.754692	0.090110	0.178083	6137.709473
8196.755605	0.090146	0.178083	6220.013184
8196.756503	0.090117	0.178083	6300.938477
8196.757395	0.090198	0.178083	6381.395020
8197.754846	1.091928	0.169829	489.183533
8197.755773	1.539825	0.169829	1916.601807
8197.756683	1.525126	0.169829	3304.466309
8197.757590	1.485121	0.169829	4651.470703
8197.758543	0.922705	0.169829	5530.808594
8197.759458	0.104172	0.169829	5626.126465
8197.760356	0.090081	0.169829	5707.019043
8197.761297	0.090128	0.169829	5791.829590
8197.762210	0.090084	0.169829	5874.076660
8197.763106	0.090125	0.169829	5954.828125
8197.764002	0.090157	0.169829	6035.609375
8197.764935	0.090260	0.169829	6119.821777
8197.765843	0.090062	0.169829	6201.598145
8197.766737	0.090176	0.169829	6282.215332
8197.767641	0.090157	0.169829	6363.717773
8198.784455	1.074258	0.175304	469.450623
8198.785420	1.540649	0.175304	1956.177246
8198.786337	1.524108	0.175304	3353.784180
8198.787234	1.484791	0.175304	4685.642090
8198.788197	0.890273	0.175304	5542.975586
8198.789102	0.101001	0.175304	5634.381348
8198.790023	0.089993	0.175304	5717.264648
8198.790917	0.090165	0.175304	5797.872070
8198.791869	0.090128	0.175304	5883.674316
8198.792771	0.090135	0.175304	5964.976562
8198.793699	0.090209	0.175304	6048.690430
8198.794585	0.090143	0.175304	6128.557129
8198.795524	0.090114	0.175304	6213.173828
8198.796428	0.090095	0.175304	6294.620117
8198.797345	0.090117	0.175304	6377.257812
8199.789020	1.071687	0.164838	476.900696
8199.789920	1.538115	0.164838	1861.204346
8199.790814	1.527166	0.164838	3226.490234
8199.791762	1.487117	0.164838	4636.276855
8199.792684	0.959780	0.164838	5521.194336
8199.793606	0.106190	0.164838	5619.101562
8199.794497	0.090088	0.164838	5699.370117
8199.795434	0.090117	0.164838	5783.810059
8199.796343	0.090121	0.164838	5865.729980
8199.797265	0.090176	0.164838	5948.872070
8199.798155	0.090114	0.164838	6029.073242
8199.799113	0.090198	0.164838	6115.482910
8199.800035	0.090110	0.164838	6198.563965
8199.800924	0.090242	0.164838	6278.789062
8199.801864	0.090128	0.164838	6363.509766
8200.822756	1.073661	0.177161	498.178650
8200.823710	1.541118	0.177161	1968.405273
8200.824649	1.522427	0.177161	3397.963867
8200.825553	1.482612	0.177161	4738.245605
8200.826497	0.831793	0.177161	5523.458496
8200.827440	0.097551	0.177161	5615.449219
8200.828351	0.090055	0.177161	5697.489258
8200.829242	0.090168	0.177161	5777.829590
8200.830176	0.090179	0.177161	5862.057129
8200.831112	0.090165	0.177161	5946.451172
8200.832013	0.090198	0.177161	6027.719238
8200.832938	0.090179	0.177161	6111.135254
8200.833872	0.090187	0.177161	6195.369629
8200.834785	0.090253	0.177161	6277.770508
8200.835676	0.090135	0.177161	6358.081055
8201.824737	1.090983	0.160624	489.851166
8201.825642	1.538833	0.160624	1882.494995
8201.826537	1.526440	0.160624	3248.659180
8201.827490	1.485582	0.160624	4664.418945
8201.828413	0.957166	0.160624	5547.882812
8201.829301	0.107908	0.160624	5643.705078
8201.830240	0.090110	0.160624	5728.318359
8201.831147	0.090205	0.160624	5810.134277
8201.832057	0.090194	0.160624	5892.210937
8201.832954	0.090114	0.160624	5973.042969
8201.833881	0.090132	0.160624	6056.595215
8201.834785	0.090048	0.160624	6137.998047
8201.835686	0.090187	0.160624	6219.256348
8201.836574	0.090216	0.160624	6299.368164
8201.837524	0.090168	0.160624	6385.028320
8202.857482	1.136777	0.183356	570.662170
8202.858417	1.541602	0.183356	2012.059570
8202.859323	1.523016	0.183356	3391.912354
8202.860216	1.483458	0.183356	4716.640625
8202.861181	0.847225	0.183356	5534.212891
8202.862074	0.100170	0.183356	5623.664551
8202.862965	0.090161	0.183356	5703.998047
8202.863899	0.090176	0.183356	5788.222168
8202.864803	0.090135	0.183356	5869.704590
8202.865715	0.090238	0.183356	5952.001465
8202.866610	0.090117	0.183356	6032.656250
8202.867545	0.090238	0.183356	6117.028809
8202.868458	0.090154	0.183356	6199.339355
8202.869362	0.090190	0.183356	6280.871582
8202.870250	0.090176	0.183356	6360.947754
8203.861974	1.067780	0.157897	473.026337
8203.862880	1.538298	0.157897	1866.724731
8203.863775	1.526858	0.157897	3233.262695
8203.864720	1.486655	0.157897	4638.151855
8203.865651	0.945597	0.157897	5518.502441
8203.866577	0.104429	0.157897	5615.203613
8203.867467	0.090103	0.157897	5695.395020
8203.868431	0.090121	0.157897	5782.271484
8203.869340	0.090161	0.157897	5864.228027
8203.870264	0.090256	0.157897	5947.625000
8203.871153	0.090132	0.157897	6027.751953
8203.872095	0.090139	0.157897	6112.663086
8203.873006	0.090135	0.157897	6194.776367
8203.873902	0.090143	0.157897	6275.544434
8203.874848	0.090157	0.157897	6360.833496
8204.889566	1.094484	0.183594	495.801117
8204.890498	1.539474	0.183594	1930.590820
8204.891408	1.524181	0.183594	3317.595459
8204.892347	1.483132	0.183594	4710.256836
8204.893300	0.864327	0.183594	5533.960937
8204.894197	0.100679	0.183594	5624.269531
8204.895124	0.090022	0.183594	5707.719727
8204.896053	0.090161	0.183594	5791.479492
8204.896986	0.090190	0.183594	5875.626953
8204.897885	0.090146	0.183594	5956.668457
8204.898800	0.090106	0.183594	6039.115723
8204.899741	0.090223	0.183594	6124.016113
8204.900656	0.090161	0.183594	6206.513672
8204.901546	0.090154	0.183594	6286.750488
8204.902476	0.090088	0.183594	6370.532227
8205.901258	1.064088	0.156882	463.942413
8205.902182	1.537039	0.156882	1884.166016
8205.903134	1.523730	0.156882	3334.757324
8205.904080	1.482605	0.156882	4737.301758
8205.904985	0.897916	0.156882	5549.916016
8205.905909	0.101799	0.156882	5643.978516
8205.906847	0.090037	0.156882	5728.433105
8205.907754	0.090165	0.156882	5810.212402
8205.908654	0.090139	0.156882	5891.337891
8205.909605	0.090183	0.156882	5977.102051
8205.910549	0.090234	0.156882	6062.283203
8205.911449	0.090205	0.156882	6143.467773
8205.912367	0.090150	0.156882	6226.225586
8205.913305	0.090201	0.156882	6310.834473
8205.914223	0.090143	0.156882	6393.585449
8206.920656	1.075788	0.190804	474.422729
8206.921574	1.538800	0.190804	1887.041138
8206.922483	1.525734	0.190804	3273.933105
8206.923437	1.484820	0.190804	4690.452148
8206.924355	0.937903	0.190804	5551.446777
8206.925256	0.105853	0.190804	5646.820801
8206.926147	0.090040	0.190804	5727.046875
8206.927081	0.090297	0.190804	5811.383789
8206.927994	0.090227	0.190804	5893.761230
8206.928891	0.090135	0.190804	5974.612793
8206.929826	0.090220	0.190804	6058.968262
8206.930730	0.090183	0.190804	6140.493652
8206.931631	0.090099	0.190804	6221.672852
8206.932521	0.090084	0.190804	6301.847656
8206.933455	0.090187	0.190804	6386.082031
8207.940577	1.084980	0.158058	491.496094
8207.941485	1.538134	0.158058	1888.121338
8207.942400	1.524972	0.158058	3283.470703
8207.943318	1.484352	0.158058	4646.105469
8207.944286	0.898997	0.158058	5516.333984
8207.945189	0.102499	0.158058	5608.890625
8207.946103	0.090103	0.158058	5691.244141
8207.946992	0.090245	0.158058	5771.472168
8207.947962	0.090059	0.158058	5858.829102
8207.948863	0.090132	0.158058	5940.038086
8207.949756	0.090194	0.158058	6020.581543
8207.950704	0.090194	0.158058	6106.085449
8207.951606	0.090110	0.158058	6187.364746
8207.952521	0.090165	0.158058	6269.865723
8207.953411	0.090227	0.158058	6350.167969
8208.952782	1.062773	0.185918	469.745880
8208.953676	1.537189	0.185918	1843.992554
8208.954638	1.524177	0.185918	3310.250977
8208.955561	1.484399	0.185918	4680.351562
8208.956461	0.962303	0.185918	5546.424805
8208.957372	0.108358	0.185918	5645.139160
8208.958315	0.090055	0.185918	5730.061035
8208.959231	0.090150	0.185918	5812.638672
8208.960122	0.090205	0.185918	5893.011230
8208.961061	0.090135	0.185918	5977.648437
8208.961982	0.090194	0.185918	6060.717285
8208.962897	0.090220	0.185918	6143.268555
8208.963785	0.090157	0.185918	6223.328613
8208.964728	0.090227	0.185918	6308.412598
8208.965655	0.090114	0.185918	6391.947754
8209.979866	1.076492	0.161442	482.268280
8209.980772	1.538994	0.161442	1876.596924
8209.981710	1.525269	0.161442	3307.298828
8209.982647	1.484575	0.161442	4698.345703
8209.983577	0.907756	0.161442	5542.559082
8209.984465	0.104583	0.161442	5635.428223
8209.985410	0.090172	0.161442	5720.641113
8209.986344	0.090216	0.161442	5804.902832
8209.987259	0.090245	0.161442	5887.477539
8209.988150	0.090187	0.161442	5967.833984
8209.989095	0.090168	0.161442	6053.042969
8209.990030	0.090212	0.161442	6137.391602
8209.990933	0.090271	0.161442	6218.906250
8209.991847	0.090154	0.161442	6301.306641
8209.992773	0.090183	0.161442	6384.816406
8210.985979	1.113461	0.189624	543.368774
8210.986900	1.540803	0.189624	1962.448608
8210.987810	1.523610	0.189624	3348.933350
8210.988707	1.484249	0.189624	4680.304687
8210.989668	0.892185	0.189624	5537.694336
8210.990564	0.103044	0.189624	5630.021973
8210.991460	0.090099	0.189624	5710.750488
8210.992351	0.090205	0.189624	5791.123047
8210.993287	0.090249	0.189624	5875.596191
8210.994198	0.090190	0.189624	5957.759766
8210.995097	0.090088	0.189624	6038.749023
8210.996027	0.090249	0.189624	6122.680664
8210.996924	0.090223	0.189624	6203.610840
8210.997832	0.090121	0.189624	6285.440430
8210.998723	0.090179	0.189624	6365.790527
8212.018633	1.067743	0.156890	468.739105
8212.019557	1.537339	0.156890	1889.240234
8212.020512	1.523950	0.156890	3344.612793
8212.021425	1.483942	0.156890	4699.451660
8212.022328	0.942517	0.156890	5550.544434
8212.023277	0.104172	0.156890	5649.403809
8212.024179	0.090125	0.156890	5730.696289
8212.025076	0.090201	0.156890	5811.606934
8212.025960	0.090286	0.156890	5891.419434
8212.026886	0.090267	0.156890	5975.006836
8212.027787	0.090183	0.156890	6056.261719
8212.028678	0.090161	0.156890	6136.595215
8212.029602	0.090238	0.156890	6219.975098
8212.030522	0.090253	0.156890	6303.007812
8212.031425	0.090205	0.156890	6384.462891
8213.020625	1.072020	0.180427	475.976959
8213.021530	1.538265	0.180427	1868.107056
8213.022426	1.527162	0.180427	3236.444092
8213.023367	1.487355	0.180427	4636.044922
8213.024287	0.981907	0.180427	5539.399414
8213.025187	0.110702	0.180427	5639.031250
8213.026073	0.090037	0.180427	5718.803711
8213.027017	0.090227	0.180427	5803.978027
8213.027922	0.090154	0.180427	5885.567383
8213.028845	0.090095	0.180427	5968.725098
8213.029737	0.090161	0.180427	6049.148926
8213.030693	0.090157	0.180427	6135.339355
8213.031593	0.090194	0.180427	6216.514160
8213.032511	0.090183	0.180427	6299.302246
8213.033402	0.090176	0.180427	6379.648926
8214.054908	1.124279	0.158546	537.405151
8214.055838	1.540800	0.158546	1970.348755
8214.056731	1.524441	0.158546	3331.674316
8214.057670	1.483667	0.158546	4724.837891
8214.058615	0.857139	0.158546	5534.833984
8214.059537	0.099159	0.158546	5626.258301
8214.060431	0.090037	0.158546	5706.750977
8214.061377	0.090132	0.158546	5792.015625
8214.062317	0.090139	0.158546	5876.746582
8214.063221	0.090234	0.158546	5958.318359
8214.064142	0.090220	0.158546	6041.410645
8214.065075	0.090172	0.158546	6125.541016
8214.065994	0.090271	0.158546	6208.500000
8214.066885	0.090187	0.158546	6288.856445
8214.067826	0.090286	0.158546	6373.815430
8215.056332	1.064557	0.178264	466.275909
8215.057226	1.537258	0.178264	1840.584717
8215.058203	1.524265	0.178264	3329.791748
8215.059136	1.483557	0.178264	4713.950684
8215.060067	0.905684	0.178264	5557.142090
8215.060952	0.104531	0.178264	5649.652344
8215.061894	0.090037	0.178264	5734.466797
8215.062828	0.090157	0.178264	5818.673828
8215.063726	0.090249	0.178264	5899.717285
8215.064639	0.090161	0.178264	5982.034180
8215.065573	0.090231	0.178264	6066.309570
8215.066484	0.090154	0.178264	6148.439453
8215.067372	0.090212	0.178264	6228.547852
8215.068322	0.090231	0.178264	6314.267090
8215.069257	0.090168	0.178264	6398.574707
8216.091632	1.091576	0.152866	521.773315
8216.092586	1.540367	0.152866	1991.283813
8216.093515	1.522602	0.152866	3405.781494
8216.094408	1.482953	0.152866	4730.058594
8216.095359	0.848705	0.152866	5537.176758
8216.096296	0.098412	0.152866	5629.388672
8216.097194	0.090114	0.152866	5710.310547
8216.098114	0.090150	0.152866	5793.248535
8216.099045	0.090198	0.152866	5877.222656
8216.099986	0.090125	0.152866	5962.029785
8216.100899	0.090231	0.152866	6044.410645
8216.101788	0.090150	0.152866	6124.554199
8216.102726	0.090205	0.152866	6209.166504
8216.103629	0.090165	0.152866	6290.585449
8216.104524	0.090198	0.152866	6371.312500
8217.092094	1.092100	0.171142	528.576172
8217.093000	1.540455	0.171142	1924.228638
8217.093903	1.524760	0.171142	3301.086426
8217.094802	1.485637	0.171142	4636.674316
8217.095768	0.916157	0.171142	5521.682129
8217.096665	0.104224	0.171142	5615.170898
8217.097562	0.090128	0.171142	5696.015625
8217.098454	0.090139	0.171142	5776.419922
8217.099402	0.090260	0.171142	5861.986328
8217.100310	0.090220	0.171142	5943.905762
8217.101212	0.090168	0.171142	6025.237793
8217.102128	0.090168	0.171142	6107.832031
8217.103028	0.090278	0.171142	6189.082520
8217.103926	0.090176	0.171142	6270.060547
8217.104817	0.090223	0.171142	6350.449707
8218.127325	1.081329	0.158509	487.679535
8218.128224	1.538427	0.158509	1870.724976
8218.129163	1.525455	0.158509	3303.127441
8218.130080	1.484850	0.158509	4664.734863
8218.130999	0.950515	0.158509	5538.258301
8218.131890	0.107725	0.158509	5634.240723
8218.132833	0.090190	0.158509	5719.290527
8218.133742	0.090201	0.158509	5801.283691
8218.134640	0.090223	0.158509	5882.304199
8218.135529	0.090187	0.158509	5962.480469
8218.136473	0.090264	0.158509	6047.689453
8218.137368	0.090190	0.158509	6128.409668
8218.138256	0.090212	0.158509	6208.518066
8218.139205	0.090190	0.158509	6294.108887
8218.140104	0.090245	0.158509	6375.239258
8219.128263	1.064125	0.171976	461.830109
8219.129218	1.539152	0.171976	1931.719849
8219.130146	1.524514	0.171976	3346.468994
8219.131055	1.484681	0.171976	4696.044434
8219.131954	0.954155	0.171976	5553.830078
8219.132895	0.106399	0.171976	5653.951660
8219.133808	0.090128	0.171976	5736.238770
8219.134725	0.090220	0.171976	5818.970215
8219.135615	0.090176	0.171976	5899.226562
8219.136558	0.090264	0.171976	5984.345215
8219.137462	0.090256	0.171976	6065.937012
8219.138347	0.090176	0.171976	6145.742676
8219.139262	0.090289	0.171976	6228.357422
8219.140204	0.090154	0.171976	6313.282227
8219.141105	0.090234	0.171976	6394.583496
8220.162507	1.068245	0.160862	467.891113
8220.163474	1.540745	0.160862	1957.791260
8220.164389	1.523573	0.160862	3351.860352
8220.165318	1.483242	0.160862	4729.792480
8220.166220	0.891046	0.160862	5533.516113
8220.167174	0.099272	0.160862	5628.222168
8220.168099	0.090040	0.160862	5711.509277
8220.168990	0.090179	0.160862	5791.859375
8220.169942	0.090161	0.160862	5877.692871
8220.170854	0.090121	0.160862	5959.883301
8220.171764	0.090110	0.160862	6041.883301
8220.172658	0.090194	0.160862	6122.516602
8220.173594	0.090125	0.160862	6206.873047
8220.174522	0.090139	0.160862	6290.521973
8220.175435	0.090106	0.160862	6372.789062
8221.162949	1.061594	0.175170	460.731903
8221.163885	1.538793	0.175170	1901.041870
8221.164838	1.523492	0.175170	3352.930176
8221.165765	1.483235	0.175170	4727.888672
8221.166676	0.889999	0.175170	5538.677734
8221.167629	0.099529	0.175170	5633.528809
8221.168561	0.090135	0.175170	5717.535156
8221.169458	0.090216	0.175170	5798.458984
8221.170377	0.090146	0.175170	5881.303711
8221.171312	0.090095	0.175170	5965.542969
8221.172228	0.090212	0.175170	6048.177734
8221.173118	0.090209	0.175170	6128.463379
8221.174060	0.090157	0.175170	6213.391602
8221.174994	0.090249	0.175170	6297.684082
8221.175893	0.090187	0.175170	6378.762207
8222.197711	1.064963	0.165003	466.453949
8222.198664	1.540602	0.165003	1934.647583
8222.199577	1.524844	0.165003	3326.829834
8222.200483	1.485037	0.165003	4672.272949
8222.201395	0.937467	0.165003	5527.242676
8222.202331	0.103118	0.165003	5623.760742
8222.203242	0.090022	0.165003	5705.770996
8222.204141	0.090267	0.165003	5786.921387
8222.205068	0.090256	0.165003	5870.588867
8222.205979	0.090234	0.165003	5952.792480
8222.206887	0.090198	0.165003	6034.691895
8222.207780	0.090176	0.165003	6115.218750
8222.208733	0.090275	0.165003	6201.250488
8222.209642	0.090176	0.165003	6283.220215
8222.210537	0.090212	0.165003	6363.960449
8223.198694	1.085643	0.180556	491.796417
8223.199600	1.538881	0.180556	1886.022217
8223.200504	1.526451	0.180556	3265.934326
8223.201439	1.486934	0.180556	4656.217285
8223.202368	0.958345	0.180556	5546.519531
8223.203269	0.107307	0.180556	5643.203125
8223.204170	0.090135	0.180556	5724.415039
8223.205108	0.090209	0.180556	5809.030762
8223.206008	0.090172	0.180556	5890.185547
8223.206906	0.090234	0.180556	5971.215820
8223.207791	0.090212	0.180556	6051.053711
8223.208735	0.090183	0.180556	6136.186523
8223.209636	0.090297	0.180556	6217.543945
8223.210535	0.090198	0.180556	6298.631836
8223.211468	0.090168	0.180556	6382.758789
8224.233449	1.098655	0.157736	507.578552
8224.234388	1.540609	0.157736	1954.210449
8224.235286	1.524196	0.157736	3322.937988
8224.236248	1.482748	0.157736	4749.341309
8224.237158	0.887750	0.157736	5557.193848
8224.238044	0.102689	0.157736	5648.176270
8224.238978	0.090040	0.157736	5732.273926
8224.239882	0.090297	0.157736	5813.901855
8224.240803	0.090260	0.157736	5897.031250
8224.241701	0.090139	0.157736	5977.976074
8224.242657	0.090231	0.157736	6064.236816
8224.243565	0.090143	0.157736	6146.086426
8224.244490	0.090179	0.157736	6229.502441
8224.245375	0.090223	0.157736	6309.350098
8224.246330	0.090205	0.157736	6395.496094
8225.235405	1.069761	0.182143	473.904022
8225.236382	1.539507	0.182143	1978.002197
8225.237284	1.522496	0.182143	3351.293945
8225.238190	1.482957	0.182143	4694.852539
8225.239131	0.894009	0.182143	5536.114746
8225.240062	0.099752	0.182143	5628.983887
8225.240983	0.090051	0.182143	5711.920898
8225.241871	0.090161	0.182143	5791.983887
8225.242798	0.090121	0.182143	5875.525879
8225.243709	0.090165	0.182143	5957.666016
8225.244632	0.090194	0.182143	6040.915039
8225.245522	0.090154	0.182143	6121.151855
8225.246469	0.090139	0.182143	6206.513672
8225.247383	0.090205	0.182143	6288.960937
8225.248274	0.090132	0.182143	6369.268555
8226.267617	1.107426	0.157422	503.878632
8226.268556	1.539782	0.157422	1949.733521
8226.269461	1.522983	0.157422	3328.033691
8226.270425	1.481649	0.157422	4756.343750
8226.271379	0.816852	0.157422	5535.620117
8226.272307	0.097068	0.157422	5625.699219
8226.273196	0.090132	0.157422	5705.826172
8226.274155	0.090198	0.157422	5792.325684
8226.275090	0.090165	0.157422	5876.629883
8226.275988	0.090227	0.157422	5957.653809
8226.276910	0.090220	0.157422	6040.836426
8226.277840	0.090194	0.157422	6124.716797
8226.278759	0.090179	0.157422	6207.591797
8226.279649	0.090194	0.157422	6287.864746
8226.280583	0.090128	0.157422	6372.044434
8227.273172	1.087844	0.184468	488.442078
8227.274137	1.540547	0.184468	1975.069824
8227.275062	1.523525	0.184468	3384.330811
8227.275956	1.484286	0.184468	4711.282227
8227.276889	0.889526	0.184468	5541.210449
8227.277834	0.100192	0.184468	5635.891602
8227.278750	0.090070	0.184468	5718.395508
8227.279645	0.090143	0.184468	5799.073242
8227.280594	0.090165	0.184468	5884.639648
8227.281529	0.090242	0.184468	5969.015625
8227.282425	0.090172	0.184468	6049.810059
8227.283345	0.090212	0.184468	6132.805664
8227.284286	0.090168	0.184468	6217.654297
8227.285218	0.090106	0.184468	6301.633301
8227.286116	0.090234	0.184468	6382.663574
8228.299734	1.082772	0.161990	485.081970
8228.300632	1.538236	0.161990	1866.417969
8228.301595	1.525023	0.161990	3335.015381
8228.302509	1.485194	0.161990	4692.482910
8228.303412	0.953840	0.161990	5553.800781
8228.304355	0.107267	0.161990	5654.953613
8228.305256	0.090143	0.161990	5736.172363
8228.306158	0.090161	0.161990	5817.497559
8228.307048	0.090081	0.161990	5897.669434
8228.307985	0.090315	0.161990	5982.294434
8228.308887	0.090179	0.161990	6063.636230
8228.309792	0.090220	0.161990	6145.285156
8228.310676	0.090216	0.161990	6225.036133
8228.311612	0.090216	0.161990	6309.478516
8228.312516	0.090095	0.161990	6390.924805
8229.310412	1.073382	0.187997	473.361694
8229.311373	1.538405	0.187997	1951.768555
8229.312305	1.523621	0.187997	3371.782959
8229.313216	1.483857	0.187997	4723.577148
8229.314117	0.927400	0.187997	5559.164551
8229.315058	0.105176	0.187997	5658.134766
8229.315974	0.090110	0.187997	5740.675293
8229.316872	0.090168	0.187997	5821.646484
8229.317759	0.090176	0.187997	5901.632324
8229.318717	0.090231	0.187997	5988.073242
8229.319613	0.090223	0.187997	6068.913574
8229.320526	0.090168	0.187997	6151.237305
8229.321422	0.090209	0.187997	6232.064453
8229.322382	0.090150	0.187997	6318.608398
8229.323283	0.090168	0.187997	6399.850098
8230.331337	1.068102	0.162191	467.828583
8230.332298	1.538796	0.162191	1946.611938
8230.333214	1.523709	0.162191	3342.329102
8230.334148	1.483326	0.162191	4727.755859
8230.335048	0.908313	0.162191	5545.237305
8230.336005	0.100345	0.162191	5641.268066
8230.336918	0.090088	0.162191	5723.518555
8230.337814	0.090187	0.162191	5804.325684
8230.338752	0.090157	0.162191	5888.893555
8230.339670	0.090223	0.162191	5971.718750
8230.340581	0.090139	0.162191	6053.835449
8230.341479	0.090223	0.162191	6134.855957
8230.342435	0.090194	0.162191	6221.081543
8230.343340	0.090220	0.162191	6302.730469
8230.344263	0.090212	0.162191	6385.996582
8231.351244	1.062814	0.182095	464.449554
8231.352139	1.536951	0.182095	1840.020386
8231.353101	1.524723	0.182095	3306.803711
8231.354034	1.483934	0.182095	4691.314453
8231.354978	0.893771	0.182095	5535.034180
8231.355875	0.102532	0.182095	5627.005371
8231.356830	0.090161	0.182095	5713.109375
8231.357763	0.090238	0.182095	5797.301270
8231.358662	0.090249	0.182095	5878.435059
8231.359585	0.090293	0.182095	5961.775391
8231.360519	0.090161	0.182095	6045.985840
8231.361438	0.090289	0.182095	6128.961914
8231.362325	0.090289	0.182095	6209.048340
8231.363260	0.090212	0.182095	6293.396973
8231.364196	0.090245	0.182095	6377.866699
8232.364025	1.095663	0.157841	521.535522
8232.364934	1.539822	0.157841	1921.233521
8232.365831	1.525085	0.157841	3289.235352
8232.366797	1.483579	0.157841	4722.373047
8232.367746	0.868195	0.157841	5546.289551
8232.368644	0.100254	0.157841	5636.317383
8232.369563	0.090011	0.157841	5719.037598
8232.370492	0.090220	0.157841	5802.851562
8232.371416	0.090209	0.157841	5886.204590
8232.372312	0.090234	0.157841	5967.054687
8232.373230	0.090198	0.157841	6049.856445
8232.374173	0.090095	0.157841	6134.816406
8232.375106	0.090161	0.157841	6218.936523
8232.376002	0.090231	0.157841	6299.783203
8232.376930	0.090223	0.157841	6383.510742
8233.390592	1.112509	0.182780	549.579224
8233.391518	1.541602	0.182780	1977.102295
8233.392425	1.524734	0.182780	3360.035889
8233.393319	1.485436	0.182780	4688.015625
8233.394279	0.879397	0.182780	5532.236816
8233.395189	0.101283	0.182780	5624.404297
8233.396082	0.090092	0.182780	5704.855957
8233.396996	0.090223	0.182780	5787.320312
8233.397914	0.090267	0.182780	5870.185547
8233.398825	0.090231	0.182780	5952.385742
8233.399718	0.090201	0.182780	6032.935547
8233.400652	0.090289	0.182780	6117.265625
8233.401560	0.090275	0.182780	6199.234863
8233.402467	0.090205	0.182780	6281.050781
8233.403354	0.090253	0.182780	6361.104980
8234.396111	1.071310	0.161124	472.447632
8234.397060	1.538983	0.161124	1932.942627
8234.397981	1.525378	0.161124	3337.816162
8234.398892	1.485729	0.161124	4691.314941
8234.399789	0.963344	0.161124	5555.434082
8234.400725	0.103495	0.161124	5652.305176
8234.401638	0.090095	0.161124	5734.562012
8234.402549	0.090161	0.161124	5816.698730
8234.403439	0.090139	0.161124	5896.922363
8234.404382	0.090209	0.161124	5981.989258
8234.405297	0.090216	0.161124	6064.537109
8234.406193	0.090157	0.161124	6145.318359
8234.407081	0.090168	0.161124	6225.388184
8234.408021	0.090220	0.161124	6310.194824
8234.408925	0.090110	0.161124	6391.654297
8235.429337	1.075774	0.185644	484.098236
8235.430233	1.538416	0.185644	1862.518555
8235.431185	1.525433	0.185644	3314.731201
8235.432094	1.485227	0.185644	4664.802734
8235.433026	0.939078	0.185644	5540.023926
8235.433917	0.106692	0.185644	5635.086426
8235.434873	0.090187	0.185644	5721.305176
8235.435783	0.090216	0.185644	5803.401855
8235.436706	0.090209	0.185644	5886.664551
8235.437594	0.090220	0.185644	5966.779785
8235.438533	0.090121	0.185644	6051.403320
8235.439435	0.090216	0.185644	6132.778320
8235.440329	0.090205	0.185644	6213.421875
8235.441265	0.090256	0.185644	6297.901855
8235.442172	0.090114	0.185644	6379.634766
8236.431322	1.088573	0.160044	494.212128
8236.432288	1.541151	0.160044	1982.964233
8236.433225	1.522288	0.160044	3409.347656
8236.434123	1.482960	0.160044	4741.045898
8236.435089	0.820291	0.160044	5533.446289
8236.436009	0.097797	0.160044	5623.418945
8236.436939	0.090062	0.160044	5707.176758
8236.437829	0.090220	0.160044	5787.472168
8236.438761	0.090150	0.160044	5871.492187
8236.439690	0.090179	0.160044	5955.269043
8236.440584	0.090278	0.160044	6035.978027
8236.441529	0.090201	0.160044	6121.218262
8236.442448	0.090187	0.160044	6204.100098
8236.443360	0.090154	0.160044	6286.320312
8236.444252	0.090165	0.160044	6366.747070
8237.465585	1.100581	0.181273	513.971375
8237.466519	1.540111	0.181273	1952.435059
8237.467449	1.523236	0.181273	3369.044434
8237.468345	1.483594	0.181273	4698.344238
8237.469311	0.859376	0.181273	5528.501465
8237.470243	0.099181	0.181273	5620.937988
8237.471134	0.090062	0.181273	5701.183594
8237.472058	0.090110	0.181273	5784.445312
8237.472992	0.090198	0.181273	5868.689941
8237.473909	0.090143	0.181273	5951.351074
8237.474806	0.090146	0.181273	6032.212402
8237.475751	0.090212	0.181273	6117.462891
8237.476691	0.090157	0.181273	6202.210937
8237.477591	0.090183	0.181273	6283.375977
8237.478507	0.090194	0.181273	6365.993652
8238.467029	1.075723	0.167190	476.545105
8238.467927	1.538057	0.167190	1857.719971
8238.468874	1.524748	0.167190	3301.656738
8238.469822	1.484300	0.167190	4708.773437
8238.470754	0.896012	0.167190	5543.856445
8238.471645	0.103429	0.167190	5636.011719
8238.472587	0.090011	0.167190	5720.802246
8238.473529	0.090234	0.167190	5805.803223
8238.474416	0.090165	0.167190	5885.779297
8238.475337	0.090176	0.167190	5968.831055
8238.476282	0.090176	0.167190	6054.047363
8238.477211	0.090117	0.167190	6137.766113
8238.478114	0.090183	0.167190	6219.201660
8238.479038	0.090183	0.167190	6302.530762
8238.479976	0.090150	0.167190	6387.091797
8239.499762	1.123118	0.174361	534.604004
8239.500698	1.541093	0.174361	1977.066650
8239.501625	1.523141	0.174361	3389.018311
8239.502523	1.482924	0.174361	4720.683594
8239.503490	0.837488	0.174361	5530.534180
8239.504432	0.097504	0.174361	5622.382812
8239.505326	0.090106	0.174361	5702.937988
8239.506246	0.090176	0.174361	5785.899902
8239.507195	0.090242	0.174361	5871.539062
8239.508115	0.090198	0.174361	5954.520996
8239.509001	0.090128	0.174361	6034.374512
8239.509933	0.090157	0.174361	6118.401367
8239.510869	0.090172	0.174361	6202.802246
8239.511770	0.090253	0.174361	6284.120117
8239.512688	0.090194	0.174361	6366.918457
8240.506364	1.090536	0.156765	534.362610
8240.507277	1.540627	0.156765	1940.955566
8240.508196	1.523895	0.156765	3341.415283
8240.509094	1.484447	0.156765	4674.448730
8240.510053	0.884817	0.156765	5522.988281
8240.510957	0.101488	0.156765	5614.733398
8240.511859	0.090117	0.156765	5696.019043
8240.512753	0.090216	0.156765	5776.672363
8240.513704	0.090242	0.156765	5862.492187
8240.514603	0.090128	0.156765	5943.517578
8240.515498	0.090190	0.156765	6024.237793
8240.516436	0.090143	0.156765	6108.791992
8240.517337	0.090308	0.156765	6190.159180
8240.518230	0.090128	0.156765	6270.643555
8240.519122	0.090234	0.156765	6351.132812
8241.532356	1.058789	0.173366	457.396851
8241.533288	1.537097	0.173366	1889.971313
8241.534229	1.524144	0.173366	3324.190918
8241.535145	1.484403	0.173366	4683.904297
8241.536052	0.947402	0.173366	5543.198242
8241.536988	0.104696	0.173366	5641.193848
8241.537901	0.090037	0.173366	5723.397461
8241.538795	0.090216	0.173366	5804.050781
8241.539685	0.090110	0.173366	5884.248535
8241.540623	0.090275	0.173366	5968.926270
8241.541515	0.090154	0.173366	6049.343262
8241.542407	0.090146	0.173366	6129.753906
8241.543331	0.090267	0.173366	6213.161133
8241.544257	0.090201	0.173366	6296.687500
8241.545164	0.090125	0.173366	6378.430664
8242.544598	1.076671	0.156519	478.041992
8242.545500	1.538551	0.156519	1865.815063
8242.546395	1.526766	0.156519	3232.270996
8242.547339	1.487168	0.156519	4636.157715
8242.548272	0.966211	0.156519	5537.632324
8242.549192	0.106699	0.156519	5635.795410
8242.550086	0.090026	0.156519	5716.278320
8242.551031	0.090168	0.156519	5801.487305
8242.551926	0.090103	0.156519	5882.128906
8242.552814	0.090176	0.156519	5962.205078
8242.553743	0.090194	0.156519	6045.995605
8242.554656	0.090103	0.156519	6128.259277
8242.555566	0.090150	0.156519	6210.295898
8242.556459	0.090212	0.156519	6290.855469
8242.557387	0.090157	0.156519	6374.521484
8243.567111	1.126285	0.171271	563.142639
8243.568020	1.541997	0.171271	1964.817871
8243.568944	1.524441	0.171271	3373.401367
8243.569847	1.484835	0.171271	4714.207520
8243.570831	0.829585	0.171271	5530.519043
8243.571732	0.098599	0.171271	5619.356445
8243.572657	0.090077	0.171271	5702.677734
8243.573546	0.090143	0.171271	5782.814941
8243.574502	0.090157	0.171271	5869.005371
8243.575404	0.090132	0.171271	5950.304199
8243.576325	0.090176	0.171271	6033.355957
8243.577212	0.090135	0.171271	6113.306152
8243.578158	0.090161	0.171271	6198.598633
8243.579077	0.090201	0.171271	6281.493652
8243.579975	0.090253	0.171271	6362.540527
8244.581873	1.114303	0.159452	518.150879
8244.582805	1.540532	0.159452	1953.926880
8244.583702	1.524822	0.159452	3321.691895
8244.584640	1.483612	0.159452	4713.320312
8244.585591	0.866631	0.159452	5537.486328
8244.586525	0.098979	0.159452	5629.933105
8244.587427	0.090110	0.159452	5711.212402
8244.588353	0.090256	0.159452	5794.789551
8244.589296	0.090220	0.159452	5879.866699
8244.590204	0.090161	0.159452	5961.732910
8244.591091	0.090161	0.159452	6041.706055
8244.592047	0.090161	0.159452	6127.899902
8244.592972	0.090216	0.159452	6211.349609
8244.593867	0.090223	0.159452	6292.099609
8244.594794	0.090165	0.159452	6375.682617
8245.599718	1.100255	0.172266	509.418121
8245.600625	1.539346	0.172266	1905.604614
8245.601525	1.525173	0.172266	3278.260742
8245.602486	1.483766	0.172266	4704.159668
8245.603434	0.886113	0.172266	5544.195312
8245.604329	0.102122	0.172266	5635.594238
8245.605264	0.090146	0.172266	5719.881348
8245.606202	0.090245	0.172266	5804.531250
8245.607121	0.090135	0.172266	5887.365723
8245.608008	0.090234	0.172266	5967.403809
8245.608948	0.090165	0.172266	6052.158691
8245.609876	0.090172	0.172266	6135.838379
8245.610797	0.090220	0.172266	6218.930664
8245.611696	0.090249	0.172266	6300.064453
8245.612639	0.090326	0.172266	6385.241699
8246.620632	1.085922	0.158240	489.750671
8246.621535	1.539225	0.158240	1879.670654
8246.622471	1.526023	0.158240	3308.028076
8246.623382	1.486080	0.158240	4661.847168
8246.624289	0.980350	0.158240	5551.024902
8246.625175	0.111013	0.158240	5649.382812
8246.626126	0.090168	0.158240	5735.132812
8246.627031	0.090260	0.158240	5816.818359
8246.627931	0.090231	0.158240	5898.025879
8246.628823	0.090227	0.158240	5978.508301
8246.629780	0.090278	0.158240	6064.904785
8246.630683	0.090212	0.158240	6146.366699
8246.631578	0.090231	0.158240	6227.123047
8246.632515	0.090297	0.158240	6311.730957
8246.633408	0.090289	0.158240	6392.359375
8247.635404	1.064960	0.170042	463.257507
8247.636348	1.539419	0.170042	1916.468994
8247.637269	1.524646	0.170042	3320.667969
8247.638176	1.485304	0.170042	4667.838867
8247.639080	0.961545	0.170042	5537.076172
8247.640039	0.102352	0.170042	5635.231934
8247.640944	0.090157	0.170042	5716.824219
8247.641833	0.090234	0.170042	5797.042480
8247.642760	0.090216	0.170042	5880.672852
8247.643663	0.090242	0.170042	5962.161133
8247.644562	0.090245	0.170042	6043.291504
8247.645454	0.090256	0.170042	6123.800293
8247.646384	0.090271	0.170042	6207.752441
8247.647302	0.090168	0.170042	6290.526855
8247.648203	0.090179	0.170042	6371.778320
8248.657369	1.082955	0.157373	487.329865
8248.658272	1.538690	0.157373	1876.767090
8248.659168	1.526737	0.157373	3244.723633
8248.660129	1.485212	0.157373	4672.012695
8248.661041	0.951892	0.157373	5540.138184
8248.661961	0.105732	0.157373	5637.412109
8248.662847	0.090062	0.157373	5717.207031
8248.663784	0.090223	0.157373	5801.746582
8248.664690	0.090256	0.157373	5883.519043
8248.665583	0.090205	0.157373	5964.072266
8248.666518	0.090289	0.157373	6048.492676
8248.667423	0.090212	0.157373	6130.134766
8248.668343	0.090209	0.157373	6213.126953
8248.669233	0.090304	0.157373	6293.497559
8248.670199	0.090253	0.157373	6380.681641
8249.670643	1.085673	0.171851	517.865845
8249.671578	1.541019	0.171851	1958.718750
8249.672508	1.523954	0.171851	3375.995850
8249.673404	1.484894	0.171851	4706.460937
8249.674367	0.853319	0.171851	5528.207031
8249.675318	0.098555	0.171851	5621.932617
8249.676215	0.090176	0.171851	5702.820312
8249.677135	0.090256	0.171851	5785.855957
8249.678070	0.090253	0.171851	5870.242187
8249.678994	0.090249	0.171851	5953.632324
8249.679886	0.090260	0.171851	6034.144043
8249.680815	0.090231	0.171851	6117.968262
8249.681751	0.090220	0.171851	6202.414062
8249.682691	0.090249	0.171851	6287.248047
8249.683588	0.090238	0.171851	6368.191406
8250.694095	1.074276	0.157414	475.904297
8250.695076	1.540214	0.157414	1986.853882
8250.696008	1.522185	0.157414	3405.530273
8250.696933	1.481517	0.157414	4775.933594
8250.697849	0.853799	0.157414	5558.013184
8250.698786	0.098134	0.157414	5649.964355
8250.699721	0.090062	0.157414	5734.172363
8250.700611	0.090128	0.157414	5814.386230
8250.701536	0.090128	0.157414	5897.754883
8250.702472	0.090110	0.157414	5982.097656
8250.703388	0.090125	0.157414	6064.651855
8250.704286	0.090125	0.157414	6145.583496
8250.705242	0.090201	0.157414	6231.815918
8250.706182	0.090117	0.157414	6316.525879
8250.707081	0.090278	0.157414	6397.686035
8251.707338	1.063520	0.170864	464.758423
8251.708233	1.537156	0.170864	1840.512817
8251.709210	1.524441	0.170864	3329.891602
8251.710118	1.484949	0.170864	4678.225098
8251.711024	0.957634	0.170864	5545.841797
8251.711966	0.107399	0.170864	5647.011230
8251.712862	0.090183	0.170864	5727.815430
8251.713759	0.090172	0.170864	5808.699707
8251.714649	0.090271	0.170864	5889.041016
8251.715585	0.090216	0.170864	5973.483398
8251.716489	0.090201	0.170864	6055.025391
8251.717395	0.090286	0.170864	6136.824219
8251.718284	0.090227	0.170864	6217.036133
8251.719233	0.090330	0.170864	6302.758789
8251.720140	0.090209	0.170864	6384.578125
8252.728806	1.080637	0.157095	505.738220
8252.729760	1.541360	0.157095	1976.195557
8252.730675	1.523829	0.157095	3370.499512
8252.731568	1.485333	0.157095	4696.902344
8252.732527	0.872618	0.157095	5533.743164
8252.733433	0.101250	0.157095	5625.475586
8252.734329	0.090128	0.157095	5706.230469
8252.735213	0.090154	0.157095	5785.926270
8252.736147	0.090242	0.157095	5870.211914
8252.737059	0.090165	0.157095	5952.442383
8252.737947	0.090176	0.157095	6032.518555
8252.738869	0.090154	0.157095	6115.640137
8252.739797	0.090172	0.157095	6199.319824
8252.740705	0.090209	0.157095	6281.229492
8252.741596	0.090168	0.157095	6361.569824
8253.743074	1.091506	0.169821	490.086365
8253.743989	1.539375	0.169821	1898.614502
8253.744926	1.524664	0.169821	3327.225098
8253.745825	1.485084	0.169821	4662.315918
8253.746776	0.915725	0.169821	5533.170410
8253.747673	0.104663	0.169821	5627.053223
8253.748562	0.090143	0.169821	5707.190430
8253.749507	0.090212	0.169821	5792.440918
8253.750406	0.090198	0.169821	5873.528809
8253.751323	0.090198	0.169821	5956.240234
8253.752223	0.090190	0.169821	6037.411621
8253.753184	0.090212	0.169821	6124.105957
8253.754087	0.090220	0.169821	6205.574219
8253.755010	0.090242	0.169821	6288.867187
8253.755902	0.090253	0.169821	6369.372559
